T(K)       rho(kg/m3)      h(J/kg)         s(J/K/kg)       Cp(J/K/kg)      p*kappa_T(1)    gamma(1)        vel(m/s)        sigma(S/m)      eta(kg/m/s)     kappa(W/m/K)    
300        5.38224         -8.16699e+06    2119.75         678.04          1               1.10052         142.994         1e-06           1.49601e-05     0.0140056       
400        4.03668         -8.09249e+06    2333.23         802.172         1               1.08366         163.846         1e-06           1.9336e-05      0.0212565       
500        3.22934         -8.008e+06      2521.42         882.077         1               1.07551         182.495         1e-06           2.36893e-05     0.0285959       
600        2.69112         -7.91696e+06    2687.27         935.152         1               1.07092         199.486         1e-06           2.80352e-05     0.0359032       
700        2.30667         -7.82156e+06    2834.25         970.344         1               1.06818         215.193         1e-06           3.23747e-05     0.0430801       
800        2.01834         -7.72327e+06    2965.46         994.039         1               1.06644         229.864         1e-06           3.67023e-05     0.0500998       
900        1.79408         -7.62296e+06    3083.6          1011.7          1               1.06521         243.667         1e-06           4.10089e-05     0.0570266       
1000       1.61466         -7.52095e+06    3191.05         1028.76         1.00001         1.06409         256.713         1e-06           4.52851e-05     0.063799        
1100       1.46776         -7.41777e+06    3291.7          1039.29         1.00005         1.06363         269.189         1e-06           4.9518e-05      0.071146        
1200       1.34479         -7.31265e+06    3383.15         1067.77         1.00037         1.06316         281.121         1e-06           5.37072e-05     0.0810201       
1300       1.2385          -7.20233e+06    3471.41         1155.07         1.00184         1.06358         292.777         1e-06           5.78682e-05     0.101616        
1400       1.14028         -7.07593e+06    3564.96         1418.36         1.00733         1.06789         304.91          1e-06           6.20705e-05     0.155775        
1500       1.03674         -6.9042e+06     3683.17         2125.3          1.0242          1.08487         319.639         1e-06           6.65079e-05     0.29618         
1600       0.907428        -6.61739e+06    3867.68         3858.07         1.06808         1.13267         341.856         1e-06           7.15885e-05     0.619069        
1700       0.731615        -6.05879e+06    4205.12         7826.52         1.16181         1.23762         381.58          1e-06           7.79246e-05     1.2333          
1800       0.522053        -4.9441e+06     4840.35         14669.1         1.28365         1.38033         453.849         1e-06           8.55746e-05     1.90259         
1900       0.362072        -3.35701e+06    5698.44         14615.9         1.24215         1.35512         548.914         1e-06           9.21746e-05     1.50881         
2000       0.290049        -2.24703e+06    6269.19         8518.98         1.12829         1.25032         618.106         1e-06           9.62618e-05     0.890571        
2100       0.247417        -1.39166e+06    6686.31         9440.72         1.13617         1.26755         671.499         1e-06           9.92967e-05     1.03822         
2200       0.208536        -325171         7182.06         11473.2         1.16376         1.30792         734.121         1e-06           0.000101857     1.21846         
2300       0.177806        773761          7670.82         9940.28         1.13835         1.29446         799.711         1e-06           0.000104227     1.02171         
2400       0.15758         1.6206e+06      8031.66         7117.7          1.09348         1.26023         855.201         2.57156e-06     0.000106704     0.754868        
2500       0.143819        2.25313e+06     8290.05         5864.06         1.06846         1.23948         898.12          7.05305e-06     0.000109352     0.660667        
2600       0.132597        2.85347e+06     8525.44         6386.96         1.06737         1.234           933.753         1.70059e-05     0.000112102     0.745579        
2700       0.121947        3.56039e+06     8792.06         7773.62         1.08063         1.2457          972.263         3.80075e-05     0.000114904     0.909636        
2800       0.11172         4.38303e+06     9091.16         8434.76         1.0893          1.26033         1017.66         8.65724e-05     0.000117754     0.983253        
2900       0.102807        5.19504e+06     9376.2          7596.25         1.08187         1.26455         1066.28         0.000213299     0.000120642     0.898317        
3000       0.0956684       5.88046e+06     9608.71         6096.05         1.0661          1.2655          1113.9          0.000535223     0.000123529     0.749758        
3100       0.0900331       6.42218e+06     9786.46         4807.38         1.05178         1.27182         1158.91         0.00128402      0.000126378     0.625083        
3200       0.0854391       6.85612e+06     9924.3          3934.67         1.0417          1.28361         1200.93         0.00289134      0.000129177     0.540875        
3300       0.0815425       7.21921e+06     10036.1         3364.77         1.03493         1.29808         1240.23         0.00611559      0.000131927     0.479075        
3400       0.0781406       7.5345e+06      10130.2         2959.87         1.03002         1.31395         1277.7          0.0122134       0.000134637     0.439418        
3500       0.0751198       7.81381e+06     10211.2         2635.45         1.02598         1.3315          1314.39         0.0231711       0.000137326     0.406326        
3600       0.0724115       8.06301e+06     10281.4         2354.34         1.02234         1.35137         1351.1          0.0420373       0.000139996     0.378052        
3700       0.0699675       8.28577e+06     10342.5         2106.31         1.01896         1.37388         1388.19         0.0734306       0.000142665     0.353277        
3800       0.067749        8.48538e+06     10395.7         1891.77         1.01586         1.3987          1425.59         0.124323        0.000145335     0.332443        
3900       0.0657226       8.6653e+06      10442.5         1712.51         1.01312         1.42481         1462.82         0.205163        0.00014801      0.315889        
4000       0.0638591       8.82905e+06     10483.9         1568.14         1.01076         1.45069         1499.17         0.331331        0.000150688     0.303605        
4100       0.0621341       8.98e+06        10521.2         1455.89         1.00879         1.47462         1533.82         0.52481         0.000153366     0.295294        
4200       0.0605269       9.12116e+06     10555.2         1371.59         1.00718         1.49511         1566.06         0.815912        0.000156047     0.290394        
4300       0.0590209       9.2551e+06      10586.8         1310.74         1.0059          1.51107         1595.37         1.24492         0.000158724     0.288528        
4400       0.0576025       9.38395e+06     10616.4         1269.21         1.00489         1.52199         1621.53         1.86352         0.000161388     0.289564        
4500       0.0562607       9.50947e+06     10644.6         1243.51         1.0041          1.52781         1644.54         2.73617         0.000164048     0.292882        
4600       0.0549867       9.63309e+06     10671.8         1230.86         1.00351         1.52889         1664.56         3.94126         0.000166696     0.29882         
4700       0.0537731       9.756e+06       10698.2         1229.1          1.00307         1.5258          1681.9          5.57241         0.000169342     0.306164        
4800       0.0526138       9.87922e+06     10724.1         1236.56         1.00276         1.51925         1696.94         7.73963         0.000171975     0.315246        
4900       0.0515036       1.00036e+07     10749.8         1251.84         1.00256         1.51002         1710.08         10.5707         0.000174598     0.325909        
5000       0.0504381       1.01298e+07     10775.3         1273.69         1.00246         1.49894         1721.79         14.2121         0.00017721      0.337974        
5100       0.0494137       1.02585e+07     10800.8         1300.86         1.00243         1.48678         1732.5          18.8302         0.000179811     0.35121         
5200       0.0484271       1.03901e+07     10826.3         1331.96         1.00246         1.4743          1742.67         24.6106         0.000182397     0.365304        
5300       0.0474757       1.0525e+07      10852           1365.45         1.00255         1.46219         1752.72         31.7597         0.000184975     0.379865        
5400       0.046557        1.06632e+07     10877.8         1399.51         1.00267         1.45102         1763.05         40.5018         0.000187543     0.394397        
5500       0.0456694       1.08048e+07     10903.8         1432.1          1.00282         1.44133         1774.02         51.078          0.000190098     0.408334        
5600       0.0448112       1.09495e+07     10929.9         1461.04         1.00297         1.43352         1785.93         63.7424         0.000192643     0.421079        
5700       0.0439814       1.10968e+07     10956           1484.14         1.00311         1.42792         1799.05         78.7587         0.000195178     0.432059        
5800       0.0431789       1.12461e+07     10981.9         1499.46         1.00322         1.42475         1813.58         96.3924         0.000197701     0.440813        
5900       0.0424033       1.13964e+07     11007.6         1505.64         1.00328         1.42416         1829.65         116.907         0.000200214     0.447086        
6000       0.0416538       1.15469e+07     11032.9         1502.14         1.00329         1.42614         1847.31         140.556         0.000202717     0.450884        
6100       0.0409301       1.16965e+07     11057.7         1489.45         1.00324         1.43056         1866.5          167.571         0.000205211     0.452524        
6200       0.0402316       1.18445e+07     11081.7         1469.17         1.00314         1.43709         1887.02         198.158         0.000207693     0.452576        
6300       0.0395576       1.19902e+07     11105           1443.73         1.003           1.44522         1908.54         232.494         0.000210167     0.451803        
6400       0.0389072       1.21332e+07     11127.5         1416.05         1.00283         1.45425         1930.6          270.713         0.000212634     0.451006        
6500       0.0382794       1.22734e+07     11149.3         1389.03         1.00265         1.46337         1952.63         312.905         0.000215085     0.450942        
6600       0.037673        1.24111e+07     11170.3         1365.14         1.00248         1.47175         1974.07         359.117         0.000217527     0.452191        
6700       0.0370867       1.25466e+07     11190.7         1346.16         1.00234         1.47864         1994.41         409.347         0.000219954     0.455136        
6800       0.0365192       1.26805e+07     11210.5         1333.16         1.00224         1.48354         2013.27         463.548         0.000222367     0.459977        
6900       0.0359693       1.28135e+07     11229.9         1326.56         1.00218         1.48616         2030.46         521.628         0.000224766     0.466768        
7000       0.0354357       1.29461e+07     11249           1326.34         1.00216         1.48645         2045.9          583.454         0.000227148     0.475458        
7100       0.0349172       1.30789e+07     11267.9         1332.17         1.00219         1.48457         2059.7          648.851         0.00022951      0.485938        
7200       0.034413        1.32127e+07     11286.6         1343.62         1.00227         1.48077         2072            717.62          0.000231852     0.498081        
7300       0.033922        1.33478e+07     11305.2         1360.21         1.00239         1.47538         2083.02         789.533         0.00023417      0.511752        
7400       0.0334434       1.34849e+07     11323.9         1381.49         1.00255         1.46872         2092.96         864.341         0.000236463     0.526828        
7500       0.0329764       1.36243e+07     11342.6         1407.05         1.00275         1.4611          2102.04         941.788         0.000238729     0.543194        
7600       0.0325204       1.37664e+07     11361.4         1436.56         1.00299         1.45279         2110.45         1021.6          0.000240963     0.560752        
7700       0.0320746       1.39117e+07     11380.4         1469.75         1.00327         1.44403         2118.36         1103.52         0.000243157     0.579967        
7800       0.0316386       1.40605e+07     11399.6         1506.4          1.00358         1.43501         2125.9          1187.28         0.000245321     0.599763        
7900       0.0312117       1.42131e+07     11419           1546.32         1.00393         1.4259          2133.21         1272.63         0.000247447     0.620537        
8000       0.0307935       1.43699e+07     11438.7         1589.34         1.00432         1.41682         2140.38         1359.31         0.000249534     0.642179        
8100       0.0303835       1.45311e+07     11458.8         1635.34         1.00474         1.40788         2147.51         1447.1          0.000251572     0.664735        
8200       0.0299814       1.4697e+07      11479.1         1684.19         1.0052          1.39916         2154.67         1535.78         0.000253563     0.688094        
8300       0.0295866       1.4868e+07      11499.9         1735.75         1.0057          1.39073         2161.92         1625.16         0.000255491     0.712398        
8400       0.0291989       1.50443e+07     11521           1789.9          1.00623         1.38263         2169.31         1715.04         0.000257377     0.737235        
8500       0.0288178       1.52261e+07     11542.5         1846.48         1.00679         1.37492         2176.9          1805.26         0.000259206     0.762702        
8600       0.0284432       1.54136e+07     11564.4         1905.35         1.00739         1.36761         2184.71         1895.66         0.000260984     0.788686        
8700       0.0280746       1.56072e+07     11586.8         1966.32         1.00803         1.36073         2192.77         1986.11         0.000262696     0.815215        
8800       0.0277119       1.5807e+07      11609.6         2029.19         1.00869         1.35429         2201.12         2076.48         0.000264347     0.842166        
8900       0.0273549       1.60131e+07     11632.9         2093.75         1.00939         1.34829         2209.76         2166.66         0.000265938     0.869457        
9000       0.0270032       1.62258e+07     11656.7         2159.74         1.01011         1.34274         2218.73         2256.56         0.000267466     0.897005        
9100       0.0266567       1.64451e+07     11680.9         2226.91         1.01086         1.33762         2228.02         2346.07         0.000268931     0.924717        
9200       0.0263153       1.66712e+07     11705.6         2294.95         1.01163         1.33295         2237.65         2435.12         0.000270336     0.952502        
9300       0.0259788       1.69041e+07     11730.8         2363.54         1.01242         1.32869         2247.62         2523.63         0.000271679     0.980261        
9400       0.0256472       1.71439e+07     11756.4         2432.34         1.01322         1.32484         2257.93         2611.54         0.000272961     1.00789         
9500       0.0253202       1.73905e+07     11782.5         2500.99         1.01404         1.32139         2268.59         2698.8          0.000274198     1.03505         
9600       0.0249978       1.76441e+07     11809.1         2569.12         1.01486         1.31831         2279.58         2785.33         0.000275365     1.06214         
9700       0.02468         1.79043e+07     11836.1         2636.34         1.01568         1.31559         2290.91         2871.11         0.000276478     1.0888          
9800       0.0243668       1.81713e+07     11863.4         2702.28         1.0165          1.3132          2302.57         2956.09         0.000277542     1.11492         
9900       0.0240581       1.84447e+07     11891.2         2766.54         1.0173          1.31112         2314.54         3040.23         0.000278557     1.14042         
10000      0.0237538       1.87245e+07     11919.3         2828.76         1.0181          1.30933         2326.82         3123.49         0.000279526     1.16519         
10100      0.0234541       1.90104e+07     11947.8         2888.61         1.01887         1.3078          2339.39         3205.85         0.000280452     1.18917         
10200      0.0231589       1.93022e+07     11976.5         2945.76         1.01961         1.30651         2352.24         3287.25         0.00028134      1.21228         
10300      0.0228683       1.95995e+07     12005.5         2999.98         1.02031         1.30543         2365.34         3367.69         0.000282191     1.23446         
10400      0.0225822       1.9902e+07      12034.7         3051.06         1.02098         1.30453         2378.67         3447.15         0.000283008     1.25568         
10500      0.0223008       2.02096e+07     12064.2         3098.88         1.02161         1.30378         2392.21         3525.63         0.000283795     1.27591         
10600      0.022024        2.05217e+07     12093.8         3143.4          1.02219         1.30315         2405.93         3603.1          0.000284551     1.29514         
10700      0.0217518       2.08381e+07     12123.5         3184.7          1.02272         1.30261         2419.81         3679.56         0.000285279     1.31337         
10800      0.0214844       2.11586e+07     12153.3         3222.94         1.0232          1.30212         2433.8          3755.02         0.00028598      1.33063         
10900      0.0212217       2.14826e+07     12183.2         3258.43         1.02362         1.30166         2447.88         3829.47         0.000286652     1.34695         
11000      0.0209637       2.18102e+07     12213.1         3291.57         1.02399         1.30118         2461.99         3902.94         0.000287295     1.36241         
11100      0.0207105       2.21409e+07     12243           3322.91         1.02431         1.30066         2476.11         3975.45         0.000287907     1.37706         
11200      0.0204619       2.24747e+07     12272.9         3353.12         1.02459         1.30004         2490.18         4047.02         0.000288485     1.39101         
11300      0.0202179       2.28115e+07     12302.9         3382.98         1.02482         1.2993          2504.16         4117.7          0.000289024     1.40435         
11400      0.0199785       2.31513e+07     12332.8         3413.4          1.02502         1.2984          2518            4187.53         0.000289522     1.41721         
11500      0.0197435       2.34942e+07     12362.8         3445.37         1.02519         1.29731         2531.66         4256.57         0.000289969     1.42969         
11600      0.0195129       2.38405e+07     12392.7         3479.95         1.02534         1.29599         2545.1          4324.88         0.000290362     1.44193         
11700      0.0192866       2.41904e+07     12422.8         3518.26         1.02549         1.29444         2558.28         4392.53         0.000290687     1.45405         
11800      0.0190642       2.45443e+07     12452.9         3561.47         1.02564         1.29262         2571.16         4459.59         0.000290939     1.46619         
11900      0.0188458       2.49028e+07     12483.1         3610.73         1.0258          1.29053         2583.73         4526.15         0.000291103     1.47847         
12000      0.018631        2.52667e+07     12513.6         3667.18         1.02599         1.28819         2595.98         4592.31         0.000291172     1.49102         
12100      0.0184197       2.56366e+07     12544.3         3732.11         1.02621         1.28558         2607.89         4658.15         0.000291132     1.50403         
12200      0.0182117       2.60134e+07     12575.3         3806.35         1.02649         1.28274         2619.5          4723.77         0.000290967     1.51754         
12300      0.0180067       2.63982e+07     12606.7         3890.86         1.02682         1.27972         2630.83         4789.28         0.000290665     1.53164         
12400      0.0178044       2.6792e+07      12638.6         3986.49         1.02723         1.27656         2641.94         4854.77         0.000290213     1.54643         
12500      0.0176047       2.71959e+07     12671           4093.96         1.02771         1.2733          2652.87         4920.34         0.000289593     1.56199         
12600      0.0174073       2.76112e+07     12704.1         4213.9          1.02829         1.27001         2663.67         4986.09         0.000288794     1.5784          
12700      0.0172119       2.80391e+07     12738           4346.77         1.02896         1.26674         2674.43         5052.11         0.000287798     1.59572         
12800      0.0170183       2.8481e+07      12772.6         4492.96         1.02973         1.26355         2685.2          5118.49         0.000286581     1.61409         
12900      0.0168263       2.89381e+07     12808.2         4652.71         1.03061         1.26049         2696.05         5185.31         0.000285153     1.6334          
13000      0.0166356       2.9412e+07      12844.8         4826.14         1.03161         1.25761         2707.05         5252.64         0.000283493     1.65377         
13100      0.0164461       2.99038e+07     12882.5         5013.29         1.03271         1.25495         2718.27         5320.54         0.000281587     1.67525         
13200      0.0162576       3.04151e+07     12921.3         5214.08         1.03393         1.25254         2729.75         5389.07         0.000279428     1.69785         
13300      0.0160698       3.09471e+07     12961.5         5428.35         1.03527         1.25042         2741.54         5458.27         0.000277007     1.72162         
13400      0.0158827       3.15012e+07     13003           5655.86         1.03673         1.2486          2753.7          5528.2          0.000274323     1.74657         
13500      0.0156961       3.20787e+07     13045.9         5896.29         1.0383          1.2471          2766.26         5598.87         0.000271368     1.77273         
13600      0.0155099       3.26809e+07     13090.4         6149.25         1.03998         1.24592         2779.25         5670.3          0.000268144     1.80011         
13700      0.0153239       3.3309e+07      13136.4         6414.32         1.04177         1.24506         2792.7          5742.51         0.000264652     1.82873         
13800      0.0151381       3.39641e+07     13184           6690.99         1.04367         1.24453         2806.63         5815.5          0.000260896     1.85862         
13900      0.0149525       3.46475e+07     13233.4         6978.72         1.04567         1.24432         2821.06         5889.25         0.000256884     1.88976         
14000      0.0147668       3.53602e+07     13284.5         7276.91         1.04777         1.24442         2836            5963.75         0.000252623     1.92217         
14100      0.0145813       3.61032e+07     13337.3         7584.93         1.04996         1.24481         2851.46         6038.99         0.000248125     1.95586         
14200      0.0143957       3.68775e+07     13392.1         7902.09         1.05224         1.24549         2867.45         6114.93         0.000243404     1.99081         
14300      0.0142102       3.76839e+07     13448.7         8227.65         1.0546          1.24644         2883.97         6191.54         0.000238473     2.02702         
14400      0.0140246       3.85233e+07     13507.1         8560.85         1.05703         1.24764         2901.04         6268.77         0.000233351     2.06447         
14500      0.0138392       3.93963e+07     13567.6         8900.84         1.05953         1.24907         2918.65         6346.6          0.000228055     2.10314         
14600      0.0136538       4.03037e+07     13629.9         9246.74         1.06208         1.25072         2936.8          6424.96         0.000222605     2.14299         
14700      0.0134687       4.12458e+07     13694.2         9597.62         1.06469         1.25258         2955.49         6503.81         0.000217022     2.18399         
14800      0.0132837       4.22233e+07     13760.5         9952.47         1.06733         1.25461         2974.72         6583.1          0.000211326     2.22607         
14900      0.0130991       4.32364e+07     13828.7         10310.2         1.06999         1.2568          2994.48         6662.77         0.000205538     2.26919         
15000      0.012915        4.42854e+07     13898.9         10669.7         1.07268         1.25914         3014.78         6742.77         0.00019968      2.31326         
15100      0.0127313       4.53704e+07     13971           11029.8         1.07537         1.2616          3035.6          6823.04         0.000193773     2.3582          
15200      0.0125484       4.64914e+07     14045           11389.2         1.07805         1.26416         3056.94         6903.51         0.000187838     2.40391         
15300      0.0123661       4.76482e+07     14120.8         11746.5         1.08072         1.2668          3078.79         6984.14         0.000181894     2.45029         
15400      0.0121848       4.88405e+07     14198.5         12100.4         1.08336         1.26951         3101.15         7064.86         0.000175961     2.49721         
15500      0.0120046       5.00681e+07     14278           12449.3         1.08596         1.27227         3123.99         7145.63         0.000170057     2.54454         
15600      0.0118255       5.13302e+07     14359.1         12791.7         1.0885          1.27505         3147.32         7226.38         0.000164201     2.59214         
15700      0.0116477       5.26262e+07     14441.9         13126           1.09096         1.27783         3171.11         7307.05         0.000158407     2.63985         
15800      0.0114715       5.39551e+07     14526.3         13450.6         1.09335         1.2806          3195.35         7387.6          0.000152689     2.68752         
15900      0.0112969       5.53159e+07     14612.2         13763.7         1.09564         1.28334         3220.02         7467.96         0.000147063     2.73496         
16000      0.011124        5.67074e+07     14699.4         14063.7         1.09781         1.28603         3245.11         7548.1          0.00014154      2.78201         
16100      0.0109531       5.81281e+07     14787.9         14348.8         1.09987         1.28865         3270.6          7627.95         0.000136131     2.82848         
16200      0.0107844       5.95766e+07     14877.6         14617.3         1.10178         1.29118         3296.46         7707.46         0.000130845     2.87419         
16300      0.0106178       6.1051e+07      14968.3         14867.6         1.10355         1.29361         3322.68         7786.6          0.00012569      2.91894         
16400      0.0104537       6.25495e+07     15060           15098.1         1.10516         1.29592         3349.22         7865.32         0.000120678     2.9626          
16500      0.010292        6.40699e+07     15152.4         15307.2         1.10659         1.29811         3376.07         7943.57         0.000115807     3.00489         
16600      0.0101331       6.56101e+07     15245.5         15493.4         1.10784         1.30014         3403.19         8021.32         0.000111084     3.04568         
16700      0.00997689      6.71678e+07     15339           15655.5         1.1089          1.30203         3430.57         8098.52         0.000106514     3.0848          
16800      0.00982362      6.87404e+07     15432.9         15792.3         1.10977         1.30375         3458.16         8175.14         0.000102099     3.1221          
16900      0.00967334      7.03254e+07     15527           15902.8         1.11042         1.30529         3485.95         8251.15         9.78404e-05     3.15742         
17000      0.00952618      7.192e+07       15621.1         15986.2         1.11088         1.30666         3513.9          8326.5          9.37399e-05     3.19065         
17100      0.00938221      7.35217e+07     15715           16042           1.11112         1.30785         3541.99         8401.18         8.97971e-05     3.22166         
17200      0.0092415       7.51275e+07     15808.6         16069.8         1.11115         1.30886         3570.18         8475.15         8.60114e-05     3.25036         
17300      0.00910412      7.67347e+07     15901.8         16069.4         1.11097         1.30968         3598.44         8548.39         8.23815e-05     3.27668         
17400      0.00897013      7.83404e+07     15994.4         16041.2         1.11058         1.31033         3626.74         8620.87         7.89054e-05     3.30058         
17500      0.00883955      7.9942e+07      16086.1         15985.4         1.10999         1.3108          3655.06         8692.57         7.55809e-05     3.32201         
17600      0.00871241      8.15366e+07     16177           15902.6         1.1092          1.3111          3683.37         8763.47         7.2405e-05      3.34099         
17700      0.00858873      8.31217e+07     16266.8         15793.9         1.10822         1.31125         3711.64         8833.55         6.93747e-05     3.35752         
17800      0.00846851      8.46946e+07     16355.4         15660.3         1.10706         1.31124         3739.84         8902.8          6.64863e-05     3.37166         
17900      0.00835174      8.62529e+07     16442.7         15503.2         1.10573         1.3111          3767.96         8971.2          6.37362e-05     3.38346         
18000      0.00823839      8.77945e+07     16528.6         15324.1         1.10424         1.31084         3795.96         9038.74         6.11201e-05     3.39302         
18100      0.00812844      8.93171e+07     16613           15124.7         1.1026          1.31046         3823.84         9105.4          5.86341e-05     3.40043         
18200      0.00802183      9.08188e+07     16695.7         14906.9         1.10084         1.31            3851.56         9171.17         5.62736e-05     3.40582         
18300      0.00791852      9.22979e+07     16776.7         14672.6         1.09896         1.30945         3879.11         9236.04         5.40342e-05     3.40933         
18400      0.00781845      9.37528e+07     16856           14423.9         1.09697         1.30884         3906.48         9300.02         5.19115e-05     3.41112         
18500      0.00772155      9.51823e+07     16933.5         14162.9         1.0949          1.30819         3933.65         9363.08         4.99008e-05     3.41133         
18600      0.00762773      9.65851e+07     17009.1         13891.8         1.09275         1.3075          3960.61         9425.22         4.79976e-05     3.41014         
18700      0.00753693      9.79604e+07     17082.9         13612.5         1.09055         1.3068          3987.36         9486.45         4.61972e-05     3.40773         
18800      0.00744905      9.93074e+07     17154.7         13327.3         1.0883          1.3061          4013.87         9546.76         4.44953e-05     3.40428         
18900      0.007364        1.00626e+08     17224.7         13038           1.08602         1.30541         4040.14         9606.13         4.28872e-05     3.39995         
19000      0.00728169      1.01915e+08     17292.7         12746.8         1.08373         1.30474         4066.17         9664.57         4.13685e-05     3.39492         
19100      0.00720202      1.03175e+08     17358.8         12455.2         1.08143         1.30411         4091.95         9722.05         3.99328e-05     3.38945         
19200      0.0071249       1.04406e+08     17423.1         12165.1         1.07914         1.30353         4117.47         9778.57         3.858e-05       3.38352         
19300      0.00705022      1.05608e+08     17485.6         11878           1.07687         1.30299         4142.74         9834.16         3.73041e-05     3.37739         
19400      0.00697789      1.06782e+08     17546.2         11595.4         1.07463         1.30252         4167.74         9888.81         3.60987e-05     3.37133         
19500      0.0069078       1.07927e+08     17605.1         11318.4         1.07243         1.30212         4192.47         9942.53         3.49644e-05     3.36524         
19600      0.00683986      1.09046e+08     17662.3         11048.3         1.07028         1.30178         4216.94         9995.31         3.38952e-05     3.35935         
19700      0.00677397      1.10137e+08     17717.9         10785.8         1.06817         1.30151         4241.13         10047.2         3.28877e-05     3.35377         
19800      0.00671004      1.11203e+08     17771.8         10531.9         1.06613         1.30132         4265.05         10098.1         3.19384e-05     3.34862         
19900      0.00664797      1.12244e+08     17824.3         10287.2         1.06415         1.30119         4288.69         10148           3.10439e-05     3.34397         
20000      0.00658768      1.13261e+08     17875.3         10052.1         1.06223         1.30113         4312.06         10197           3.02012e-05     3.33992         
20100      0.00652907      1.14255e+08     17924.8         9827.01         1.06039         1.30114         4335.15         10245.1         2.9407e-05      3.33652         
20200      0.00647207      1.15227e+08     17973.1         9612.15         1.05862         1.30122         4357.95         10292.3         2.86587e-05     3.33384         
20300      0.0064166       1.16178e+08     18020           9407.6          1.05693         1.30135         4380.49         10338.5         2.79535e-05     3.33194         
20400      0.00636257      1.17109e+08     18065.8         9213.36         1.05531         1.30154         4402.74         10383.9         2.72888e-05     3.33084         
20500      0.00630991      1.18021e+08     18110.4         9029.3          1.05376         1.30177         4424.72         10428.3         2.66622e-05     3.33059         
20600      0.00625856      1.18915e+08     18153.9         8855.21         1.05228         1.30206         4446.42         10472           2.60713e-05     3.3312          
20700      0.00620845      1.19792e+08     18196.4         8690.78         1.05088         1.30238         4467.86         10514.7         2.55139e-05     3.3327          
20800      0.00615952      1.20653e+08     18237.9         8535.66         1.04955         1.30274         4489.04         10556.7         2.49881e-05     3.33507         
20900      0.00611171      1.21499e+08     18278.5         8389.41         1.04829         1.30314         4509.96         10597.8         2.44917e-05     3.33833         
21000      0.00606496      1.22331e+08     18318.2         8251.57         1.04709         1.30356         4530.64         10638.1         2.40231e-05     3.34247         
21100      0.00601922      1.2315e+08      18357.1         8121.63         1.04596         1.30401         4551.08         10677.6         2.35806e-05     3.34749         
21200      0.00597446      1.23956e+08     18395.2         7999.04         1.04488         1.30449         4571.29         10716.5         2.31625e-05     3.35339         
21300      0.00593061      1.2475e+08      18432.5         7883.25         1.04386         1.305           4591.29         10754.6         2.27675e-05     3.36016         
21400      0.00588765      1.25533e+08     18469.2         7773.7          1.04289         1.30553         4611.08         10792.1         2.23941e-05     3.36776         
21500      0.00584552      1.26305e+08     18505.2         7669.81         1.04197         1.30608         4630.69         10828.9         2.2041e-05      3.37617         
21600      0.00580421      1.27067e+08     18540.6         7571.05         1.04109         1.30665         4650.12         10865.2         2.1707e-05      3.38537         
21700      0.00576367      1.27819e+08     18575.3         7476.86         1.04025         1.30724         4669.38         10900.9         2.13911e-05     3.39537         
21800      0.00572388      1.28562e+08     18609.5         7386.73         1.03945         1.30786         4688.5          10936.1         2.10923e-05     3.40614         
21900      0.0056848       1.29297e+08     18643.1         7300.17         1.03869         1.30851         4707.48         10970.8         2.08068e-05     3.4177          
22000      0.00564642      1.30023e+08     18676.1         7216.73         1.03795         1.30917         4726.33         11005.1         2.05389e-05     3.42993         
22100      0.0056087       1.3074e+08      18708.7         7135.99         1.03724         1.30986         4745.07         11038.9         2.02853e-05     3.44286         
22200      0.00557163      1.3145e+08      18740.7         7057.58         1.03655         1.31058         4763.71         11072.5         2.00454e-05     3.45645         
22300      0.00553519      1.32152e+08     18772.3         6981.16         1.03589         1.31132         4782.25         11105.7         1.98184e-05     3.47069         
22400      0.00549936      1.32846e+08     18803.3         6906.46         1.03524         1.31209         4800.7          11138.7         1.96037e-05     3.48557         
22500      0.00546412      1.33533e+08     18833.9         6833.23         1.03461         1.31287         4819.08         11171.4         1.94007e-05     3.50107         
22600      0.00542945      1.34213e+08     18864.1         6761.28         1.03399         1.31369         4837.38         11204           1.92088e-05     3.51716         
22700      0.00539535      1.34885e+08     18893.8         6690.47         1.03338         1.31452         4855.61         11236.4         1.90275e-05     3.53383         
22800      0.00536178      1.35551e+08     18923           6620.71         1.03279         1.31538         4873.76         11268.6         1.88563e-05     3.55104         
22900      0.00532876      1.3621e+08      18951.9         6551.93         1.0322          1.31625         4891.85         11300.8         1.86949e-05     3.56877         
23000      0.00529625      1.36861e+08     18980.3         6484.13         1.03163         1.31713         4909.86         11332.9         1.85427e-05     3.58702         
23100      0.00526424      1.37506e+08     19008.2         6417.34         1.03106         1.31802         4927.79         11365           1.83993e-05     3.60576         
23200      0.00523274      1.38145e+08     19035.8         6351.63         1.0305          1.31892         4945.63         11397.1         1.82645e-05     3.62501         
23300      0.00520171      1.38777e+08     19063           6287.08         1.02994         1.31982         4963.38         11429.2         1.81378e-05     3.64475         
23400      0.00517116      1.39402e+08     19089.8         6223.84         1.0294          1.32071         4981.03         11461.4         1.80189e-05     3.66494         
23500      0.00514107      1.40022e+08     19116.2         6162.06         1.02886         1.32159         4998.55         11493.6         1.79075e-05     3.68556         
23600      0.00511142      1.40635e+08     19142.2         6101.93         1.02833         1.32245         5015.94         11525.9         1.78032e-05     3.7066          
23700      0.00508221      1.41242e+08     19167.9         6043.63         1.02781         1.32328         5033.19         11558.2         1.77058e-05     3.72808         
23800      0.00505343      1.41844e+08     19193.2         5987.4          1.0273          1.32407         5050.26         11590.7         1.7615e-05      3.74998         
23900      0.00502507      1.4244e+08      19218.2         5933.47         1.02679         1.32481         5067.15         11623.3         1.75305e-05     3.77229         
24000      0.00499711      1.4303e+08      19242.9         5882.07         1.0263          1.32549         5083.83         11656           1.7452e-05      3.79499         
24100      0.00496954      1.43616e+08     19267.3         5833.46         1.02583         1.32611         5100.28         11688.8         1.73793e-05     3.81806         
24200      0.00494236      1.44197e+08     19291.3         5787.9          1.02536         1.32664         5116.48         11721.7         1.73122e-05     3.84149         
24300      0.00491554      1.44774e+08     19315.1         5745.65         1.02491         1.32708         5132.4          11754.8         1.72502e-05     3.86527         
24400      0.00488908      1.45346e+08     19338.6         5706.98         1.02447         1.32742         5148.02         11787.9         1.71932e-05     3.88941         
24500      0.00486297      1.45915e+08     19361.9         5672.15         1.02406         1.32765         5163.32         11821.1         1.71409e-05     3.9139          
24600      0.0048372       1.46481e+08     19384.9         5641.42         1.02366         1.32775         5178.26         11854.4         1.70931e-05     3.93873         
24700      0.00481175      1.47044e+08     19407.8         5615.05         1.02328         1.32771         5192.83         11887.8         1.70496e-05     3.96389         
24800      0.00478661      1.47604e+08     19430.4         5593.3          1.02292         1.32753         5207.01         11921.2         1.70101e-05     3.98937         
24900      0.00476178      1.48163e+08     19452.9         5576.4          1.02258         1.3272          5220.77         11954.6         1.69744e-05     4.01517         
25000      0.00473723      1.4872e+08      19475.2         5564.61         1.02226         1.3267          5234.1          11988.1         1.69421e-05     4.04126         
25100      0.00471296      1.49276e+08     19497.4         5558.17         1.02197         1.32603         5246.99         12021.7         1.69131e-05     4.06766         
25200      0.00468896      1.49831e+08     19519.5         5557.3          1.02171         1.32519         5259.42         12055.1         1.68871e-05     4.09435         
25300      0.00466521      1.50387e+08     19541.5         5562.23         1.02147         1.32417         5271.38         12088.5         1.68639e-05     4.12133         
25400      0.0046417       1.50944e+08     19563.5         5573.17         1.02126         1.32298         5282.87         12121.9         1.68432e-05     4.14859         
25500      0.00461842      1.51502e+08     19585.4         5590.33         1.02107         1.3216          5293.89         12155.1         1.68249e-05     4.17612         
25600      0.00459537      1.52062e+08     19607.3         5613.92         1.02092         1.32006         5304.44         12188.2         1.68086e-05     4.20391         
25700      0.00457252      1.52625e+08     19629.3         5644.14         1.0208          1.31834         5314.53         12221.1         1.6794e-05      4.23194         
25800      0.00454986      1.53191e+08     19651.3         5681.17         1.02071         1.31646         5324.18         12253.9         1.6781e-05      4.2602          
25900      0.00452739      1.53762e+08     19673.3         5725.19         1.02066         1.31442         5333.39         12286.4         1.67693e-05     4.28869         
26000      0.0045051       1.54337e+08     19695.5         5776.39         1.02063         1.31224         5342.2          12318.7         1.67587e-05     4.31741         
26100      0.00448297      1.54917e+08     19717.8         5834.92         1.02064         1.30993         5350.61         12350.6         1.6749e-05      4.34636         
26200      0.00446099      1.55504e+08     19740.2         5900.96         1.02069         1.30749         5358.67         12382.3         1.674e-05       4.37555         
26300      0.00443915      1.56098e+08     19762.8         5974.66         1.02077         1.30495         5366.4          12413.6         1.67313e-05     4.40496         
26400      0.00441744      1.56699e+08     19785.6         6056.17         1.02089         1.30232         5373.83         12444.5         1.67228e-05     4.4346          
26500      0.00439585      1.57309e+08     19808.7         6145.63         1.02105         1.29962         5381            12475           1.67141e-05     4.46442         
26600      0.00437437      1.57928e+08     19832           6243.18         1.02125         1.29686         5387.95         12505           1.67051e-05     4.49442         
26700      0.00435299      1.58558e+08     19855.7         6348.94         1.02148         1.29406         5394.71         12534.6         1.66955e-05     4.52459         
26800      0.00433169      1.59199e+08     19879.6         6463.04         1.02176         1.29124         5401.32         12563.6         1.66851e-05     4.55492         
26900      0.00431047      1.59851e+08     19903.9         6585.6          1.02208         1.28841         5407.83         12592.1         1.66737e-05     4.5854          
27000      0.00428933      1.60516e+08     19928.6         6716.71         1.02243         1.28559         5414.26         12619.9         1.6661e-05      4.61603         
27100      0.00426824      1.61195e+08     19953.7         6856.46         1.02283         1.28279         5420.66         12647.1         1.66469e-05     4.64681         
27200      0.0042472       1.61888e+08     19979.2         7004.96         1.02327         1.28004         5427.06         12673.6         1.66312e-05     4.67773         
27300      0.0042262       1.62596e+08     20005.2         7162.27         1.02375         1.27733         5433.5          12699.4         1.66135e-05     4.70879         
27400      0.00420524      1.6332e+08      20031.7         7328.46         1.02428         1.2747          5440.01         12724.4         1.65937e-05     4.73997         
27500      0.00418429      1.64062e+08     20058.7         7503.57         1.02484         1.27214         5446.62         12748.7         1.6563e-05      4.77026         
27600      0.00416337      1.64821e+08     20086.2         7687.66         1.02546         1.26967         5453.36         12772.2         1.65388e-05     4.80169         
27700      0.00414244      1.656e+08       20114.4         7880.74         1.02611         1.2673          5460.27         12794.9         1.65119e-05     4.83323         
27800      0.00412152      1.66398e+08     20143.2         8082.84         1.02681         1.26503         5467.36         12816.7         1.64822e-05     4.86487         
27900      0.00410059      1.67216e+08     20172.6         8293.93         1.02755         1.26288         5474.66         12837.7         1.64494e-05     4.89664         
28000      0.00407964      1.68057e+08     20202.6         8514            1.02833         1.26085         5482.19         12857.7         1.64134e-05     4.92853         
28100      0.00405867      1.6892e+08      20233.4         8743.01         1.02916         1.25894         5489.97         12876.9         1.63741e-05     4.9605          
28200      0.00403767      1.69806e+08     20264.9         8980.9          1.03003         1.25717         5498.02         12895           1.63312e-05     4.99252         
28300      0.00401664      1.70716e+08     20297.1         9227.58         1.03094         1.25553         5506.36         12912.2         1.62846e-05     5.02456         
28400      0.00399556      1.71651e+08     20330.1         9482.95         1.0319          1.25402         5515            12928.4         1.62341e-05     5.05661         
28500      0.00397443      1.72613e+08     20363.9         9746.88         1.0329          1.25265         5523.95         12943.6         1.61798e-05     5.0887          
28600      0.00395326      1.73601e+08     20398.5         10019.2         1.03394         1.25142         5533.22         12957.8         1.61214e-05     5.12084         
28700      0.00393202      1.74617e+08     20433.9         10299.8         1.03501         1.25033         5542.82         12971.1         1.6059e-05      5.15304         
28800      0.00391073      1.75661e+08     20470.3         10588.4         1.03613         1.24938         5552.77         12983.4         1.59924e-05     5.18528         
28900      0.00388937      1.76735e+08     20507.5         10884.8         1.03729         1.24856         5563.07         12994.7         1.59216e-05     5.21755         
29000      0.00386795      1.77839e+08     20545.6         11188.7         1.03848         1.24788         5573.72         13004.9         1.58465e-05     5.24982         
29100      0.00384645      1.78973e+08     20584.6         11499.8         1.03971         1.24732         5584.73         13014           1.57672e-05     5.28209         
29200      0.00382488      1.80139e+08     20624.6         11817.9         1.04098         1.2469          5596.11         13022.1         1.56835e-05     5.31435         
29300      0.00380324      1.81337e+08     20665.6         12142.5         1.04228         1.24661         5607.85         13029.2         1.55955e-05     5.34661         
29400      0.00378152      1.82567e+08     20707.5         12473.3         1.04361         1.24644         5619.97         13035.4         1.55032e-05     5.37888         
29500      0.00375972      1.83832e+08     20750.5         12809.9         1.04497         1.24639         5632.45         13040.5         1.54067e-05     5.41114         
29600      0.00373785      1.8513e+08      20794.4         13151.7         1.04635         1.24645         5645.31         13044.7         1.53059e-05     5.4434          
29700      0.0037159       1.86462e+08     20839.3         13498.4         1.04776         1.24662         5658.54         13048           1.52009e-05     5.47564         
29800      0.00369388      1.87829e+08     20885.3         13849.3         1.0492          1.2469          5672.14         13050.4         1.50918e-05     5.50786         
29900      0.00367178      1.89232e+08     20932.3         14204.1         1.05065         1.24729         5686.11         13051.9         1.49788e-05     5.54006         
30000      0.00364962      1.9067e+08      20980.3         14562           1.05212         1.24776         5700.46         13052.5         1.48618e-05     5.57224         
