T(K)       rho(kg/m3)      h(J/kg)         s(J/K/kg)       Cp(J/K/kg)      p*kappa_T(1)    gamma(1)        vel(m/s)        sigma(S/m)      eta(kg/m/s)     kappa(W/m/K)    
300        5.61886         -8.26114e+06    2058.68         674.024         1               1.09651         139.695         1e-06           1.47749e-05     0.0135906       
400        4.21414         -8.18696e+06    2271.21         799.485         1               1.08015         160.099         1e-06           1.90785e-05     0.0207738       
500        3.37132         -8.1027e+06     2458.89         880.141         1               1.07227         178.342         1e-06           2.33657e-05     0.0280516       
600        2.80943         -8.01183e+06    2624.42         933.601         1               1.06785         194.961         1e-06           2.76565e-05     0.0353002       
700        2.40808         -7.91658e+06    2771.18         968.934         1               1.06522         210.322         1e-06           3.19538e-05     0.04242         
800        2.10707         -7.81843e+06    2902.2          992.62          1               1.06356         224.668         1e-06           3.62526e-05     0.0493854       
900        1.87295         -7.71826e+06    3020.17         1010.21         1               1.06239         238.165         1e-06           4.05431e-05     0.0562645       
1000       1.68564         -7.61641e+06    3127.46         1027.2          1.00001         1.06132         250.923         1e-06           4.48147e-05     0.0629983       
1100       1.53228         -7.5134e+06     3227.98         1037.5          1.00006         1.06091         263.122         1e-06           4.90529e-05     0.0702923       
1200       1.4039          -7.40848e+06    3319.25         1065.42         1.00037         1.06051         274.796         1e-06           5.32558e-05     0.080031        
1300       1.29288         -7.29848e+06    3407.26         1150.8          1.00187         1.06111         286.217         1e-06           5.74382e-05     0.10013         
1400       1.19015         -7.17274e+06    3500.32         1408.26         1.00747         1.06581         298.143         1e-06           6.16706e-05     0.152678        
1500       1.08152         -7.00265e+06    3617.4          2100.38         1.02468         1.08345         312.676         1e-06           6.61523e-05     0.288761        
1600       0.945275        -6.71969e+06    3799.43         3803.39         1.0695          1.13244         334.687         1e-06           7.13071e-05     0.602739        
1700       0.759409        -6.16827e+06    4132.54         7743.61         1.16576         1.24021         374.288         1e-06           7.77822e-05     1.20667         
1800       0.537529        -5.05792e+06    4765.25         14719           1.29286         1.38886         447.046         1e-06           8.5672e-05      1.88897         
1900       0.368398        -3.44873e+06    5635.21         14954.5         1.25233         1.36523         543.984         1e-06           9.24927e-05     1.52622         
2000       0.293128        -2.31333e+06    6219.05         8654.34         1.13218         1.25394         614.683         1e-06           9.66492e-05     0.893393        
2100       0.249505        -1.45117e+06    6639.51         9480.59         1.13813         1.26933         668.577         1e-06           9.96959e-05     1.03148         
2200       0.209903        -377794         7138.44         11583.5         1.16659         1.3107          731.615         1e-06           0.000102248     1.21738         
2300       0.178566        735162          7633.43         10092.9         1.14135         1.29741         797.868         1e-06           0.000104598     1.02668         
2400       0.157981        1.59544e+06     8000            7226.55         1.09554         1.26214         853.961         2.55772e-06     0.000107059     0.758548        
2500       0.144044        2.23623e+06     8261.76         5924.1          1.06965         1.24062         897.328         7.02788e-06     0.0001097       0.661           
2600       0.132734        2.84123e+06     8498.98         6424.96         1.06812         1.23478         933.242         1.69646e-05     0.000112447     0.743159        
2700       0.122023        3.55215e+06     8767.12         7821.17         1.08135         1.24642         971.912         3.79158e-05     0.000115246     0.906764        
2800       0.111735        4.38104e+06     9068.49         8512.66         1.09028         1.26124         1017.5          8.62165e-05     0.000118097     0.982907        
2900       0.102759        5.20174e+06     9356.57         7686.94         1.08298         1.2655          1066.38         0.000212052     0.000120982     0.900322        
3000       0.0955716       5.8957e+06      9591.98         6173.25         1.06707         1.2662          1114.27         0.000531965     0.00012387      0.752177        
3100       0.0899051       6.44411e+06     9771.91         4864.01         1.05252         1.27224         1159.52         0.00127687      0.000126721     0.62699         
3200       0.0852929       6.88285e+06     9911.28         3975.24         1.04226         1.28389         1201.76         0.00287723      0.000129524     0.542238        
3300       0.081386        7.24944e+06     10024.1         3395.02         1.03538         1.29833         1241.27         0.00609016      0.000132281     0.48591         
3400       0.0779782       7.56741e+06     10119.1         2983.58         1.0304          1.31423         1278.93         0.0121711       0.000134993     0.442812        
3500       0.074954        7.84885e+06     10200.7         2654.5          1.02631         1.33186         1315.81         0.0231061       0.000137687     0.409142        
3600       0.072244        8.09975e+06     10271.4         2369.45         1.02262         1.35188         1352.73         0.0419437       0.000140362     0.380355        
3700       0.0697995       8.32383e+06     10332.8         2117.67         1.01921         1.37467         1390.09         0.073303        0.000143035     0.355052        
3800       0.0675816       8.5244e+06      10386.3         1899.37         1.01607         1.39996         1427.84         0.124155        0.000145711     0.333657        
3900       0.0655565       8.70489e+06     10433.2         1716.32         1.01329         1.42683         1465.59         0.204952        0.000148391     0.316497        
4000       0.0636953       8.86882e+06     10474.7         1568.08         1.0109          1.45383         1502.62         0.331081        0.000151075     0.303548        
4100       0.0619731       9.01957e+06     10511.9         1451.84         1.00889         1.47933         1538.19         0.524556        0.00015376      0.294489        
4200       0.0603693       9.16012e+06     10545.8         1363.32         1.00725         1.50184         1571.57         0.815752        0.000156448     0.288722        
4300       0.0588673       9.293e+06       10577.1         1297.85         1.00594         1.52031         1602.3          1.24507         0.000159129     0.286031        
4400       0.0574534       9.42031e+06     10606.4         1251.13         1.00489         1.5342          1630.13         1.8644          0.000161804     0.285642        
4500       0.0561168       9.54373e+06     10634.1         1219.47         1.00407         1.54342         1655.06         2.73843         0.000164472     0.287478        
4600       0.0548485       9.66461e+06     10660.7         1199.9          1.00344         1.54826         1677.24         3.94592         0.000167128     0.291622        
4700       0.0536412       9.78403e+06     10686.3         1190.05         1.00295         1.54925         1696.96         5.58091         0.000169783     0.296796        
4800       0.052489        9.90288e+06     10711.4         1188.04         1.00259         1.547           1714.54         7.75386         0.000172425     0.303274        
4900       0.0513868       1.00219e+07     10735.9         1192.3          1.00233         1.54224         1730.39         10.5931         0.000175057     0.310842        
5000       0.0503303       1.01415e+07     10760.1         1201.4          1.00216         1.53571         1744.91         14.2455         0.000177679     0.31927         
5100       0.049316        1.02622e+07     10784           1213.97         1.00204         1.52816         1758.52         18.8778         0.00018029      0.328296        
5200       0.0483407       1.03844e+07     10807.7         1228.58         1.00198         1.52033         1771.67         24.676          0.000182891     0.337607        
5300       0.0474018       1.0508e+07      10831.2         1243.77         1.00195         1.51288         1784.76         31.8462         0.000185481     0.346853        
5400       0.0464972       1.06331e+07     10854.6         1257.98         1.00195         1.50642         1798.19         40.6124         0.000188061     0.355654        
5500       0.0456249       1.07595e+07     10877.8         1269.71         1.00196         1.50147         1812.31         51.2144         0.000190629     0.363647        
5600       0.0447836       1.08869e+07     10900.8         1277.61         1.00196         1.49842         1827.39         63.9047         0.000193188     0.370541        
5700       0.0439717       1.10149e+07     10923.4         1280.73         1.00195         1.49751         1843.63         78.9446         0.000195737     0.376168        
5800       0.0431883       1.11429e+07     10945.7         1278.69         1.00192         1.4988          1861.11         96.5967         0.000198274     0.380542        
5900       0.0424323       1.12704e+07     10967.5         1271.83         1.00187         1.50211         1879.74         117.122         0.000200804     0.383875        
6000       0.0417027       1.13971e+07     10988.8         1261.2          1.00179         1.50703         1899.28         140.77          0.000203321     0.386548        
6100       0.0409983       1.15226e+07     11009.5         1248.43         1.0017          1.51292         1919.36         167.769         0.000205831     0.389054        
6200       0.0403181       1.16468e+07     11029.7         1235.36         1.00161         1.51902         1939.47         198.329         0.00020833      0.391895        
6300       0.0396609       1.17697e+07     11049.4         1223.77         1.00152         1.52453         1959.11         232.625         0.000210818     0.395512        
6400       0.0390253       1.18916e+07     11068.6         1215.04         1.00144         1.52876         1977.8          270.794         0.000213295     0.400226        
6500       0.0384101       1.20129e+07     11087.4         1210.1          1.00139         1.53121         1995.23         312.931         0.00021576      0.406227        
6600       0.0378141       1.21338e+07     11105.9         1209.39         1.00137         1.53166         2011.21         359.088         0.000218214     0.413601        
6700       0.0372361       1.22549e+07     11124.1         1213            1.00138         1.53007         2025.7          409.268         0.000220654     0.422345        
6800       0.0366749       1.23765e+07     11142.1         1220.83         1.00142         1.52659         2038.77         463.427         0.000223077     0.432418        
6900       0.0361295       1.24992e+07     11160           1232.62         1.00149         1.52144         2050.56         521.478         0.000225486     0.443755        
7000       0.0355991       1.26232e+07     11177.8         1248.12         1.00159         1.5149          2061.23         583.289         0.000227877     0.456288        
7100       0.0350826       1.27489e+07     11195.7         1267.07         1.00172         1.50723         2070.95         648.688         0.000230247     0.469948        
7200       0.0345794       1.28767e+07     11213.5         1289.28         1.00188         1.49869         2079.88         717.475         0.000232596     0.484682        
7300       0.0340888       1.30069e+07     11231.5         1314.57         1.00208         1.48949         2088.16         789.422         0.000234926     0.500393        
7400       0.0336099       1.31397e+07     11249.6         1342.83         1.0023          1.47983         2095.92         864.282         0.000237225     0.517141        
7500       0.0331422       1.32755e+07     11267.8         1373.96         1.00255         1.46988         2103.29         941.796         0.000239495     0.534837        
7600       0.0326851       1.34146e+07     11286.2         1407.9          1.00283         1.45978         2110.35         1021.69         0.000241734     0.553447        
7700       0.032238        1.35572e+07     11304.9         1444.6          1.00314         1.44963         2117.21         1103.71         0.00024394      0.572945        
7800       0.0318004       1.37036e+07     11323.7         1484.03         1.00348         1.43955         2123.94         1187.57         0.00024611      0.593301        
7900       0.0313719       1.38541e+07     11342.9         1526.15         1.00386         1.42962         2130.61         1273.03         0.00024824      0.614483        
8000       0.0309519       1.40089e+07     11362.4         1570.92         1.00427         1.41991         2137.29         1359.83         0.000250326     0.636456        
8100       0.03054         1.41684e+07     11382.2         1618.31         1.00471         1.41049         2144.03         1447.75         0.000252359     0.659689        
8200       0.0301359       1.43327e+07     11402.4         1668.25         1.00518         1.40139         2150.87         1536.57         0.000254351     0.683216        
8300       0.0297391       1.45021e+07     11422.9         1720.68         1.00569         1.39266         2157.88         1626.08         0.000256281     0.707624        
8400       0.0293494       1.46769e+07     11443.8         1775.5          1.00623         1.38434         2165.08         1716.11         0.000258167     0.732514        
8500       0.0289663       1.48573e+07     11465.2         1832.61         1.00681         1.37645         2172.5          1806.46         0.000259996     0.757989        
8600       0.0285896       1.50435e+07     11486.9         1891.87         1.00742         1.369           2180.18         1897.01         0.000261778     0.78375         
8700       0.028219        1.52357e+07     11509.2         1953.13         1.00806         1.36201         2188.15         1987.6          0.000263487     0.81025         
8800       0.0278542       1.54342e+07     11531.9         2016.19         1.00874         1.35549         2196.41         2078.11         0.000265135     0.837136        
8900       0.0274951       1.5639e+07      11555           2080.86         1.00944         1.34943         2205            2168.42         0.000266723     0.864333        
9000       0.0271413       1.58504e+07     11578.6         2146.88         1.01017         1.34383         2213.91         2258.45         0.000268246     0.891758        
9100       0.0267928       1.60684e+07     11602.7         2213.98         1.01093         1.33869         2223.16         2348.09         0.000269706     0.919322        
9200       0.0264494       1.62932e+07     11627.3         2281.88         1.0117          1.334           2232.77         2437.26         0.000271105     0.946934        
9300       0.0261109       1.65248e+07     11652.3         2350.24         1.0125          1.32974         2242.72         2525.89         0.000272442     0.974496        
9400       0.0257772       1.67633e+07     11677.8         2418.72         1.01331         1.3259          2253.03         2613.9          0.000273717     1.00191         
9500       0.0254482       1.70086e+07     11703.8         2486.95         1.01413         1.32247         2263.69         2701.25         0.000274942     1.02901         
9600       0.0251239       1.72606e+07     11730.2         2554.53         1.01496         1.31942         2274.7          2787.88         0.000276103     1.0558          
9700       0.0248042       1.75194e+07     11757           2621.08         1.01579         1.31673         2286.05         2873.73         0.000277209     1.08214         
9800       0.024489        1.77848e+07     11784.2         2686.19         1.01661         1.31439         2297.73         2958.77         0.000278265     1.10792         
9900       0.0241784       1.80566e+07     11811.8         2749.45         1.01742         1.31237         2309.75         3042.95         0.000279273     1.13304         
10000      0.0238724       1.83346e+07     11839.7         2810.47         1.01821         1.31065         2322.08         3126.25         0.000280235     1.15742         
10100      0.0235709       1.86186e+07     11868           2868.89         1.01898         1.3092          2334.71         3208.61         0.000281155     1.18096         
10200      0.023274        1.89083e+07     11896.5         2924.37         1.01972         1.308           2347.62         3290            0.000282038     1.20361         
10300      0.0229817       1.92034e+07     11925.3         2976.62         1.02042         1.30702         2360.81         3370.41         0.000282883     1.22529         
10400      0.0226941       1.95035e+07     11954.3         3025.4          1.02108         1.30623         2374.23         3449.81         0.000283697     1.24597         
10500      0.0224111       1.98083e+07     11983.5         3070.58         1.0217          1.30561         2387.88         3528.2          0.000284481     1.26561         
10600      0.0221329       2.01175e+07     12012.8         3112.06         1.02226         1.30512         2401.73         3605.55         0.000285235     1.2842          
10700      0.0218595       2.04306e+07     12042.2         3149.89         1.02277         1.30473         2415.74         3681.86         0.000285962     1.30174         
10800      0.0215909       2.07474e+07     12071.7         3184.21         1.02323         1.30441         2429.88         3757.12         0.000286666     1.31826         
10900      0.0213271       2.10674e+07     12101.2         3215.27         1.02362         1.30412         2444.12         3831.33         0.000287342     1.33379         
11000      0.0210682       2.13903e+07     12130.6         3243.47         1.02396         1.30383         2458.41         3904.52         0.000287991     1.3484          
11100      0.0208141       2.1716e+07      12160.1         3269.35         1.02424         1.30349         2472.72         3976.69         0.000288611     1.36215         
11200      0.0205649       2.20441e+07     12189.5         3293.56         1.02447         1.30307         2486.98         4047.87         0.0002892       1.37513         
11300      0.0203204       2.23747e+07     12218.9         3316.91         1.02465         1.30253         2501.15         4118.1          0.000289753     1.38745         
11400      0.0200806       2.27075e+07     12248.3         3340.31         1.02479         1.30182         2515.18         4187.43         0.000290267     1.39922         
11500      0.0198455       2.30428e+07     12277.5         3364.79         1.0249          1.30091         2529.02         4255.89         0.000290732     1.41057         
11600      0.0196149       2.33805e+07     12306.8         3391.51         1.02498         1.29975         2542.61         4323.56         0.000291147     1.42162         
11700      0.0193887       2.37212e+07     12336           3421.65         1.02504         1.29832         2555.91         4390.51         0.000291496     1.43251         
11800      0.0191667       2.4065e+07      12365.3         3456.48         1.02511         1.29659         2568.88         4456.8          0.000291773     1.44337         
11900      0.0189488       2.44127e+07     12394.6         3497.28         1.02518         1.29454         2581.47         4522.54         0.000291966     1.45434         
12000      0.0187347       2.47647e+07     12424.1         3545.34         1.02528         1.29217         2593.68         4587.8          0.000292064     1.46553         
12100      0.0185243       2.5122e+07      12453.7         3602.1          1.02541         1.28947         2605.47         4652.69         0.000292054     1.47717         
12200      0.0183172       2.54855e+07     12483.6         3668.55         1.02559         1.28649         2616.89         4717.32         0.00029192      1.48928         
12300      0.0181133       2.58561e+07     12513.9         3745.81         1.02584         1.28324         2627.94         4781.8          0.000291648     1.50198         
12400      0.0179123       2.6235e+07      12544.6         3834.89         1.02616         1.27979         2638.68         4846.22         0.000291225     1.51537         
12500      0.0177138       2.66235e+07     12575.8         3936.67         1.02656         1.2762          2649.17         4910.72         0.000290633     1.52953         
12600      0.0175178       2.70228e+07     12607.6         4051.87         1.02706         1.27252         2659.47         4975.38         0.000289858     1.54455         
12700      0.0173238       2.74344e+07     12640.1         4181.09         1.02767         1.26884         2669.66         5040.32         0.000288882     1.5605          
12800      0.0171316       2.78595e+07     12673.5         4324.77         1.02838         1.26521         2679.82         5105.64         0.000287681     1.57753         
12900      0.0169409       2.82998e+07     12707.7         4483.17         1.02921         1.26171         2690.04         5171.42         0.000286264     1.59554         
13000      0.0167516       2.87567e+07     12743           4656.43         1.03017         1.25841         2700.39         5237.76         0.000284609     1.61466         
13100      0.0165634       2.92316e+07     12779.4         4844.55         1.03125         1.25534         2710.96         5304.73         0.000282702     1.63493         
13200      0.0163761       2.97261e+07     12817           5047.38         1.03246         1.25256         2721.81         5372.4          0.000280534     1.65639         
13300      0.0161894       3.02415e+07     12855.9         5264.67         1.0338          1.2501          2732.99         5440.82         0.0002781       1.67906         
13400      0.0160032       3.07795e+07     12896.2         5496.07         1.03527         1.24799         2744.57         5510.04         0.000275394     1.70299         
13500      0.0158174       3.13412e+07     12938           5741.13         1.03686         1.24623         2756.59         5580.1          0.000272412     1.72819         
13600      0.0156318       3.19281e+07     12981.3         5999.35         1.03857         1.24485         2769.08         5651.02         0.000269155     1.75469         
13700      0.0154464       3.25415e+07     13026.2         6270.13         1.0404          1.24383         2782.06         5722.8          0.000265624     1.78251         
13800      0.0152609       3.31825e+07     13072.8         6552.87         1.04235         1.24318         2795.57         5795.46         0.000261825     1.81165         
13900      0.0150753       3.38524e+07     13121.2         6846.88         1.04441         1.24288         2809.61         5868.97         0.000257765     1.84213         
14000      0.0148897       3.45523e+07     13171.4         7151.47         1.04657         1.24292         2824.2          5943.33         0.000253452     1.87396         
14100      0.0147039       3.52831e+07     13223.4         7465.9          1.04883         1.24329         2839.35         6018.51         0.000248902     1.90713         
14200      0.0145179       3.60458e+07     13277.3         7789.4          1.05118         1.24397         2855.06         6094.47         0.000244126     1.94165         
14300      0.0143318       3.68412e+07     13333.1         8121.18         1.05361         1.24494         2871.33         6171.17         0.000239139     1.97749         
14400      0.0141456       3.76702e+07     13390.9         8460.4          1.05612         1.24618         2888.17         6248.57         0.000233961     2.01464         
14500      0.0139593       3.85335e+07     13450.6         8806.2          1.05869         1.24766         2905.58         6326.61         0.000228611     2.05308         
14600      0.013773        3.94317e+07     13512.3         9157.68         1.06132         1.24938         2923.54         6405.25         0.000223107     2.09277         
14700      0.0135867       4.03652e+07     13576.1         9513.87         1.064           1.2513          2942.07         6484.43         0.000217472     2.13366         
14800      0.0134005       4.13346e+07     13641.8         9873.79         1.06671         1.25341         2961.16         6564.08         0.000211726     2.17572         
14900      0.0132146       4.23401e+07     13709.5         10236.4         1.06946         1.25568         2980.79         6644.15         0.000205891     2.21886         
15000      0.013029        4.33819e+07     13779.2         10600.5         1.07222         1.2581          3000.97         6724.57         0.000199989     2.26301         
15100      0.0128438       4.44602e+07     13850.8         10965           1.07498         1.26065         3021.69         6805.29         0.000194042     2.3081          
15200      0.0126592       4.55749e+07     13924.4         11328.5         1.07774         1.2633          3042.94         6886.24         0.000188068     2.35401         
15300      0.0124753       4.67258e+07     13999.9         11689.9         1.08048         1.26603         3064.71         6967.35         0.00018209      2.40064         
15400      0.0122922       4.79127e+07     14077.2         12047.7         1.08319         1.26882         3086.99         7048.57         0.000176125     2.44787         
15500      0.0121101       4.91352e+07     14156.3         12400.4         1.08585         1.27166         3109.77         7129.84         0.000170193     2.49556         
15600      0.0119291       5.03926e+07     14237.2         12746.5         1.08845         1.27453         3133.03         7211.09         0.000164311     2.54357         
15700      0.0117495       5.16842e+07     14319.7         13084.4         1.09099         1.27739         3156.77         7292.27         0.000158494     2.59175         
15800      0.0115713       5.30091e+07     14403.8         13412.5         1.09343         1.28024         3180.96         7373.32         0.000152756     2.63993         
15900      0.0113947       5.43663e+07     14489.5         13729.2         1.09578         1.28306         3205.6          7454.18         0.000147112     2.68793         
16000      0.0112199       5.57545e+07     14576.5         14032.7         1.09802         1.28582         3230.66         7534.81         0.000141574     2.73558         
16100      0.011047        5.71723e+07     14664.8         14321.3         1.10013         1.28851         3256.12         7615.14         0.000136151     2.7827          
16200      0.0108762       5.86182e+07     14754.4         14593.4         1.1021          1.29111         3281.95         7695.14         0.000130853     2.82909         
16300      0.0107076       6.00904e+07     14845           14847.2         1.10392         1.2936          3308.15         7774.74         0.000125689     2.87458         
16400      0.0105415       6.1587e+07      14936.5         15081.2         1.10557         1.29598         3334.68         7853.92         0.000120664     2.91896         
16500      0.0103778       6.31059e+07     15028.8         15293.8         1.10706         1.29822         3361.52         7932.61         0.00011579      2.96211         
16600      0.0102169       6.4645e+07      15121.8         15483.7         1.10835         1.30031         3388.64         8010.78         0.000111061     3.00375         
16700      0.0100587       6.62019e+07     15215.3         15649.3         1.10946         1.30224         3416.01         8088.39         0.000106486     3.04376         
16800      0.00990349      6.7774e+07      15309.2         15789.7         1.11036         1.30401         3443.61         8165.41         0.000102067     3.08197         
16900      0.0097513       6.93589e+07     15403.2         15903.7         1.11106         1.3056          3471.41         8241.8          9.78054e-05     3.11823         
17000      0.00960225      7.09539e+07     15497.3         15990.6         1.11155         1.30701         3499.37         8317.51         9.37024e-05     3.15243         
17100      0.00945641      7.25561e+07     15591.3         16049.9         1.11182         1.30824         3527.46         8392.55         8.97576e-05     3.18443         
17200      0.00931388      7.41629e+07     15685           16081           1.11188         1.30927         3555.67         8466.86         8.59706e-05     3.21414         
17300      0.00917472      7.57714e+07     15778.2         16084           1.11173         1.31013         3583.94         8540.41         8.23396e-05     3.24149         
17400      0.00903898      7.73788e+07     15870.9         16058.9         1.11136         1.3108          3612.27         8613.19         7.88629e-05     3.26643         
17500      0.0089067       7.89822e+07     15962.8         16006.1         1.11079         1.31129         3640.61         8685.18         7.55379e-05     3.28891         
17600      0.0087779       8.05791e+07     16053.8         15926.3         1.11002         1.3116          3668.94         8756.34         7.2362e-05      3.30894         
17700      0.00865261      8.21666e+07     16143.7         15820.3         1.10906         1.31176         3697.23         8826.69         6.93318e-05     3.32653         
17800      0.00853083      8.37423e+07     16232.5         15689.2         1.10791         1.31176         3725.46         8896.18         6.64437e-05     3.34172         
17900      0.00841253      8.53037e+07     16320           15534.5         1.10659         1.31163         3753.6          8964.8          6.36939e-05     3.35458         
18000      0.00829772      8.68485e+07     16406           15357.5         1.10511         1.31136         3781.63         9032.54         6.10784e-05     3.36518         
18100      0.00818634      8.83745e+07     16490.6         15160.1         1.10348         1.31098         3809.53         9099.39         5.85929e-05     3.37362         
18200      0.00807835      8.98799e+07     16573.5         14944.1         1.10171         1.31051         3837.28         9165.35         5.6233e-05      3.38003         
18300      0.00797372      9.13628e+07     16654.8         14711.3         1.09983         1.30995         3864.86         9230.38         5.39944e-05     3.38454         
18400      0.00787236      9.28216e+07     16734.3         14464           1.09784         1.30932         3892.25         9294.5          5.18724e-05     3.3873          
18500      0.00777422      9.42551e+07     16812           14204.1         1.09576         1.30865         3919.45         9357.69         4.98625e-05     3.38847         
18600      0.00767922      9.56621e+07     16887.8         13933.8         1.09361         1.30795         3946.43         9419.95         4.796e-05       3.38822         
18700      0.00758727      9.70416e+07     16961.8         13655.3         1.0914          1.30722         3973.19         9481.29         4.61604e-05     3.38672         
18800      0.0074983       9.8393e+07      17033.9         13370.5         1.08914         1.30649         3999.73         9541.69         4.44592e-05     3.38415         
18900      0.00741219      9.97156e+07     17104           13081.6         1.08685         1.30578         4026.02         9601.14         4.28519e-05     3.38068         
19000      0.00732887      1.01009e+08     17172.3         12790.5         1.08455         1.30508         4052.06         9659.63         4.1334e-05      3.37647         
19100      0.00724823      1.02274e+08     17238.7         12498.9         1.08224         1.30442         4077.85         9717.15         3.99012e-05     3.37171         
19200      0.00717017      1.03509e+08     17303.2         12208.7         1.07993         1.3038          4103.39         9773.71         3.85492e-05     3.36654         
19300      0.00709459      1.04716e+08     17365.8         11921.4         1.07765         1.30324         4128.67         9829.32         3.72721e-05     3.36126         
19400      0.00702139      1.05893e+08     17426.7         11638.3         1.07539         1.30273         4153.68         9883.98         3.60695e-05     3.35579         
19500      0.00695048      1.07043e+08     17485.8         11360.8         1.07317         1.30229         4178.42         9937.69         3.49359e-05     3.35037         
19600      0.00688175      1.08166e+08     17543.3         11090.1         1.071           1.30192         4202.89         9990.46         3.38675e-05     3.34512         
19700      0.00681509      1.09262e+08     17599           10826.9         1.06888         1.30162         4227.09         10042.3         3.28608e-05     3.34016         
19800      0.00675043      1.10332e+08     17653.2         10572.3         1.06682         1.30139         4251.01         10093.1         3.19121e-05     3.33559         
19900      0.00668766      1.11376e+08     17705.8         10326.8         1.06483         1.30123         4274.66         10143           3.10164e-05     3.33158         
20000      0.00662669      1.12397e+08     17757           10090.8         1.0629          1.30114         4298.02         10192           3.01741e-05     3.32806         
20100      0.00656743      1.13395e+08     17806.8         9864.81         1.06104         1.30112         4321.12         10240           2.93804e-05     3.32517         
20200      0.00650981      1.14371e+08     17855.2         9649.01         1.05925         1.30117         4343.93         10287           2.86324e-05     3.32298         
20300      0.00645373      1.15325e+08     17902.3         9443.5          1.05754         1.30127         4366.46         10333.2         2.79276e-05     3.32153         
20400      0.00639912      1.1626e+08      17948.3         9248.26         1.0559          1.30143         4388.72         10378.5         2.72632e-05     3.32087         
20500      0.0063459       1.17175e+08     17993           9063.18         1.05434         1.30164         4410.71         10422.8         2.66369e-05     3.32103         
20600      0.00629401      1.18073e+08     18036.7         8888.04         1.05286         1.3019          4432.42         10466.3         2.60462e-05     3.32204         
20700      0.00624338      1.18953e+08     18079.3         8722.55         1.05144         1.3022          4453.87         10509           2.5489e-05      3.3239          
20800      0.00619395      1.19817e+08     18121           8566.34         1.0501          1.30255         4475.05         10550.8         2.49633e-05     3.32662         
20900      0.00614565      1.20667e+08     18161.7         8418.98         1.04882         1.30292         4495.99         10591.7         2.44671e-05     3.33021         
21000      0.00609843      1.21501e+08     18201.6         8280.01         1.04761         1.30333         4516.68         10631.9         2.39986e-05     3.33466         
21100      0.00605224      1.22323e+08     18240.6         8148.9          1.04646         1.30378         4537.13         10671.3         2.3556e-05      3.33997         
21200      0.00600703      1.23131e+08     18278.8         8025.12         1.04537         1.30425         4557.37         10710           2.3138e-05      3.34615         
21300      0.00596276      1.23928e+08     18316.3         7908.1          1.04434         1.30474         4577.39         10747.9         2.2743e-05      3.35318         
21400      0.00591939      1.24713e+08     18353.1         7797.27         1.04336         1.30526         4597.21         10785.3         2.23695e-05     3.36102         
21500      0.00587687      1.25488e+08     18389.2         7692.07         1.04243         1.30581         4616.84         10821.9         2.20164e-05     3.36966         
21600      0.00583517      1.26252e+08     18424.7         7591.94         1.04154         1.30639         4636.31         10858           2.16823e-05     3.37908         
21700      0.00579425      1.27006e+08     18459.5         7496.33         1.04069         1.30699         4655.61         10893.5         2.13664e-05     3.38928         
21800      0.0057541       1.27751e+08     18493.7         7404.71         1.03988         1.30761         4674.76         10928.5         2.10674e-05     3.40024         
21900      0.00571467      1.28487e+08     18527.4         7316.6          1.0391          1.30826         4693.79         10963.1         2.07817e-05     3.41198         
22000      0.00567595      1.29215e+08     18560.6         7231.53         1.03835         1.30894         4712.69         10997.2         2.05137e-05     3.42438         
22100      0.0056379       1.29934e+08     18593.2         7149.09         1.03763         1.30965         4731.49         11031           2.026e-05       3.43746         
22200      0.00560051      1.30645e+08     18625.3         7068.89         1.03693         1.31038         4750.18         11064.3         2.002e-05       3.4512          
22300      0.00556376      1.31348e+08     18656.9         6990.59         1.03625         1.31114         4768.79         11097.4         1.97929e-05     3.46558         
22400      0.00552763      1.32043e+08     18688           6913.9          1.03559         1.31193         4787.32         11130.2         1.95782e-05     3.48059         
22500      0.0054921       1.3273e+08      18718.6         6838.59         1.03495         1.31275         4805.77         11162.9         1.93751e-05     3.4962          
22600      0.00545716      1.33411e+08     18748.8         6764.46         1.03432         1.3136          4824.16         11195.3         1.91831e-05     3.5124          
22700      0.00542278      1.34083e+08     18778.5         6691.35         1.0337          1.31447         4842.48         11227.6         1.90018e-05     3.52918         
22800      0.00538896      1.34749e+08     18807.7         6619.18         1.03309         1.31537         4860.74         11259.7         1.88306e-05     3.54649         
22900      0.00535569      1.35407e+08     18836.5         6547.87         1.03249         1.31628         4878.93         11291.8         1.86692e-05     3.56431         
23000      0.00532294      1.36058e+08     18864.9         6477.41         1.0319          1.31722         4897.06         11323.8         1.85171e-05     3.58264         
23100      0.00529071      1.36703e+08     18892.9         6407.84         1.03131         1.31817         4915.12         11355.8         1.83738e-05     3.60147         
23200      0.00525898      1.3734e+08      18920.4         6339.21         1.03073         1.31913         4933.1          11387.9         1.82392e-05     3.62079         
23300      0.00522774      1.37971e+08     18947.5         6271.62         1.03016         1.3201          4951            11420           1.81127e-05     3.64059         
23400      0.00519699      1.38594e+08     18974.2         6205.19         1.0296          1.32107         4968.81         11452.1         1.79941e-05     3.66085         
23500      0.0051667       1.39212e+08     19000.6         6140.09         1.02904         1.32203         4986.51         11484.3         1.78829e-05     3.68153         
23600      0.00513687      1.39822e+08     19026.5         6076.49         1.02849         1.32297         5004.09         11516.6         1.7779e-05      3.70263         
23700      0.00510749      1.40427e+08     19052.1         6014.6          1.02795         1.3239          5021.54         11549.1         1.76821e-05     3.72415         
23800      0.00507855      1.41025e+08     19077.3         5954.62         1.02742         1.32479         5038.83         11581.6         1.75918e-05     3.7461          
23900      0.00505003      1.41618e+08     19102.1         5896.8          1.0269          1.32564         5055.94         11614.3         1.75079e-05     3.76846         
24000      0.00502192      1.42205e+08     19126.6         5841.38         1.02638         1.32644         5072.87         11647.1         1.74301e-05     3.79121         
24100      0.00499421      1.42786e+08     19150.8         5788.6          1.02588         1.32717         5089.57         11680           1.73582e-05     3.81432         
24200      0.0049669       1.43363e+08     19174.6         5738.73         1.02539         1.32783         5106.04         11713           1.72918e-05     3.83779         
24300      0.00493997      1.43934e+08     19198.2         5692.03         1.02492         1.32841         5122.24         11746.2         1.72308e-05     3.86162         
24400      0.0049134       1.44501e+08     19221.5         5648.77         1.02446         1.32889         5138.14         11779.6         1.71748e-05     3.88579         
24500      0.00488719      1.45064e+08     19244.5         5609.21         1.02401         1.32926         5153.73         11813           1.71237e-05     3.91032         
24600      0.00486132      1.45623e+08     19267.3         5573.62         1.02359         1.3295          5168.98         11846.5         1.70771e-05     3.93518         
24700      0.00483579      1.46179e+08     19289.8         5542.27         1.02318         1.32961         5183.86         11880.1         1.70349e-05     3.96037         
24800      0.00481058      1.46732e+08     19312.2         5515.4          1.02279         1.32958         5198.34         11913.9         1.69968e-05     3.98589         
24900      0.00478568      1.47282e+08     19334.3         5493.28         1.02242         1.32939         5212.41         11947.6         1.69626e-05     4.01173         
25000      0.00476108      1.47831e+08     19356.3         5476.15         1.02208         1.32903         5226.04         11981.5         1.6932e-05      4.03786         
25100      0.00473676      1.48378e+08     19378.1         5464.26         1.02176         1.32851         5239.22         12015.4         1.69047e-05     4.0643          
25200      0.00471272      1.48924e+08     19399.9         5457.84         1.02146         1.3278          5251.93         12049.2         1.68806e-05     4.09102         
25300      0.00468894      1.49469e+08     19421.5         5457.13         1.02119         1.3269          5264.16         12083.1         1.68594e-05     4.11804         
25400      0.00466541      1.50015e+08     19443           5462.36         1.02095         1.32582         5275.89         12116.9         1.68409e-05     4.14534         
25500      0.00464212      1.50562e+08     19464.5         5473.74         1.02073         1.32455         5287.13         12150.6         1.68248e-05     4.17292         
25600      0.00461906      1.5111e+08      19485.9         5491.5          1.02055         1.32309         5297.87         12184.2         1.68108e-05     4.20075         
25700      0.00459621      1.5166e+08      19507.4         5515.83         1.0204          1.32145         5308.13         12217.7         1.67987e-05     4.22882         
25800      0.00457357      1.52214e+08     19528.9         5546.95         1.02027         1.31963         5317.9          12251           1.67883e-05     4.25714         
25900      0.00455111      1.5277e+08      19550.4         5585.04         1.02018         1.31763         5327.2          12284.1         1.67794e-05     4.28569         
26000      0.00452884      1.53331e+08     19572           5630.31         1.02013         1.31547         5336.05         12317           1.67717e-05     4.31446         
26100      0.00450674      1.53896e+08     19593.7         5682.94         1.0201          1.31316         5344.47         12349.7         1.6765e-05      4.34346         
26200      0.0044848       1.54468e+08     19615.6         5743.11         1.02012         1.3107          5352.49         12382           1.67591e-05     4.37271         
26300      0.00446301      1.55045e+08     19637.6         5810.99         1.02017         1.30813         5360.13         12414           1.67536e-05     4.40219         
26400      0.00444135      1.5563e+08      19659.8         5886.75         1.02025         1.30544         5367.44         12445.6         1.67484e-05     4.43189         
26500      0.00441981      1.56223e+08     19682.2         5970.56         1.02038         1.30266         5374.44         12476.9         1.67432e-05     4.46178         
26600      0.00439839      1.56824e+08     19704.8         6062.58         1.02054         1.29981         5381.18         12507.7         1.67377e-05     4.49186         
26700      0.00437708      1.57436e+08     19727.8         6162.95         1.02075         1.2969          5387.69         12538.1         1.67318e-05     4.5221          
26800      0.00435585      1.58057e+08     19751           6271.82         1.02099         1.29396         5394.01         12568           1.67251e-05     4.5525          
26900      0.00433471      1.5869e+08      19774.6         6389.32         1.02128         1.29099         5400.19         12597.2         1.67175e-05     4.58307         
27000      0.00431365      1.59336e+08     19798.5         6515.59         1.0216          1.28802         5406.27         12625.9         1.67088e-05     4.61379         
27100      0.00429264      1.59994e+08     19822.9         6650.73         1.02197         1.28506         5412.28         12653.9         1.66987e-05     4.64465         
27200      0.00427169      1.60666e+08     19847.6         6794.86         1.02238         1.28214         5418.27         12681.3         1.66869e-05     4.67567         
27300      0.00425078      1.61353e+08     19872.8         6948.08         1.02284         1.27926         5424.27         12708           1.66733e-05     4.70682         
27400      0.0042299       1.62056e+08     19898.5         7110.47         1.02334         1.27645         5430.32         12734           1.66576e-05     4.73811         
27500      0.00420905      1.62775e+08     19924.7         7282.11         1.02389         1.27371         5436.47         12759.2         1.66396e-05     4.7695          
27600      0.00418821      1.63513e+08     19951.5         7463.06         1.02448         1.27105         5442.73         12783.5         1.66109e-05     4.80003         
27700      0.00416738      1.64268e+08     19978.8         7653.35         1.02511         1.2685          5449.14         12807.1         1.65881e-05     4.83167         
27800      0.00414655      1.65044e+08     20006.8         7853.02         1.02579         1.26606         5455.74         12829.8         1.65625e-05     4.86343         
27900      0.0041257       1.65839e+08     20035.3         8062.09         1.02652         1.26373         5462.54         12851.6         1.65338e-05     4.89532         
28000      0.00410484      1.66656e+08     20064.6         8280.53         1.02729         1.26153         5469.57         12872.5         1.65019e-05     4.92732         
28100      0.00408396      1.67496e+08     20094.5         8508.34         1.02811         1.25946         5476.86         12892.5         1.64666e-05     4.95941         
28200      0.00406304      1.68358e+08     20125.1         8745.44         1.02897         1.25753         5484.43         12911.5         1.64276e-05     4.99155         
28300      0.00404208      1.69245e+08     20156.5         8991.77         1.02988         1.25574         5492.28         12929.4         1.63848e-05     5.0237          
28400      0.00402108      1.70157e+08     20188.7         9247.23         1.03084         1.25409         5500.45         12946.4         1.63381e-05     5.05588         
28500      0.00400003      1.71095e+08     20221.7         9511.7          1.03183         1.25259         5508.94         12962.3         1.62874e-05     5.08809         
28600      0.00397892      1.7206e+08      20255.4         9785.02         1.03288         1.25123         5517.76         12977.3         1.62325e-05     5.12035         
28700      0.00395774      1.73052e+08     20290.1         10067           1.03396         1.25003         5526.93         12991.2         1.61734e-05     5.15268         
28800      0.0039365       1.74073e+08     20325.6         10357.5         1.03509         1.24897         5536.46         13004.1         1.611e-05       5.18504         
28900      0.00391519      1.75124e+08     20362           10656.2         1.03626         1.24806         5546.35         13016           1.60423e-05     5.21743         
29000      0.0038938       1.76205e+08     20399.4         10962.8         1.03747         1.24729         5556.6          13026.7         1.59701e-05     5.24982         
29100      0.00387234      1.77317e+08     20437.6         11277.1         1.03871         1.24666         5567.24         13036.4         1.58862e-05     5.28151         
29200      0.00385079      1.7846e+08      20476.9         11598.8         1.04            1.24617         5578.25         13044.9         1.58052e-05     5.31391         
29300      0.00382916      1.79637e+08     20517.1         11927.3         1.04132         1.24582         5589.65         13052.4         1.57198e-05     5.3463          
29400      0.00380745      1.80846e+08     20558.3         12262.5         1.04267         1.24561         5601.44         13058.9         1.56298e-05     5.3787          
29500      0.00378565      1.82089e+08     20600.5         12603.7         1.04406         1.24552         5613.61         13064.4         1.55353e-05     5.41108         
29600      0.00376377      1.83367e+08     20643.7         12950.6         1.04547         1.24555         5626.16         13068.8         1.54364e-05     5.44347         
29700      0.0037418       1.8468e+08      20688           13302.6         1.04692         1.2457          5639.11         13072.3         1.5333e-05      5.47583         
29800      0.00371974      1.86028e+08     20733.3         13659.2         1.04838         1.24596         5652.44         13074.9         1.52254e-05     5.50817         
29900      0.00369761      1.87412e+08     20779.7         14019.9         1.04987         1.24634         5666.16         13076.4         1.51135e-05     5.54049         
30000      0.00367539      1.88832e+08     20827.1         14384           1.05138         1.24681         5680.27         13077.2         1.49974e-05     5.57278         
