r(cm),U(V),Ne(m^-3)
0,-10000,1.00E+15
1.00E-03,-9989.99,1.00E+15
2.00E-03,-9979.98,1.00E+15
3.00E-03,-9969.97,1.00E+15
4.00E-03,-9959.96,1.00E+15
0.00500501,-9949.95,1.00E+15
0.00600601,-9939.94,1.00E+15
0.00700701,-9929.93,1.00E+15
0.00800801,-9919.92,1.00E+15
0.00900901,-9909.91,1.00E+15
0.01001,-9899.9,1.00E+15
0.011011,-9889.89,1.00E+15
0.012012,-9879.88,1.00E+15
0.013013,-9869.87,1.00E+15
0.014014,-9859.86,9.99E+14
0.015015,-9849.85,9.99E+14
0.016016,-9839.84,9.99E+14
0.017017,-9829.83,9.99E+14
0.018018,-9819.82,9.98E+14
0.019019,-9809.81,9.98E+14
0.02002,-9799.8,9.98E+14
0.021021,-9789.79,9.97E+14
0.022022,-9779.78,9.97E+14
0.023023,-9769.77,9.97E+14
0.024024,-9759.76,9.96E+14
0.025025,-9749.75,9.96E+14
0.026026,-9739.74,9.96E+14
0.027027,-9729.73,9.95E+14
0.028028,-9719.72,9.95E+14
0.029029,-9709.71,9.94E+14
0.03003,-9699.7,9.94E+14
0.031031,-9689.69,9.93E+14
0.032032,-9679.68,9.93E+14
0.033033,-9669.67,9.92E+14
0.034034,-9659.66,9.92E+14
0.035035,-9649.65,9.91E+14
0.036036,-9639.64,9.91E+14
0.037037,-9629.63,9.90E+14
0.038038,-9619.62,9.89E+14
0.039039,-9609.61,9.89E+14
0.04004,-9599.6,9.88E+14
0.041041,-9589.59,9.88E+14
0.042042,-9579.58,9.87E+14
0.043043,-9569.57,9.86E+14
0.044044,-9559.56,9.86E+14
0.045045,-9549.55,9.85E+14
0.046046,-9539.54,9.84E+14
0.047047,-9529.53,9.83E+14
0.048048,-9519.52,9.83E+14
0.049049,-9509.51,9.82E+14
0.0500501,-9499.5,9.81E+14
0.0510511,-9489.49,9.80E+14
0.0520521,-9479.48,9.80E+14
0.0530531,-9469.47,9.79E+14
0.0540541,-9459.46,9.78E+14
0.0550551,-9449.45,9.77E+14
0.0560561,-9439.44,9.76E+14
0.0570571,-9429.43,9.75E+14
0.0580581,-9419.42,9.74E+14
0.0590591,-9409.41,9.73E+14
0.0600601,-9399.4,9.73E+14
0.0610611,-9389.39,9.72E+14
0.0620621,-9379.38,9.71E+14
0.0630631,-9369.37,9.70E+14
0.0640641,-9359.36,9.69E+14
0.0650651,-9349.35,9.68E+14
0.0660661,-9339.34,9.67E+14
0.0670671,-9329.33,9.66E+14
0.0680681,-9319.32,9.65E+14
0.0690691,-9309.31,9.64E+14
0.0700701,-9299.3,9.62E+14
0.0710711,-9289.29,9.61E+14
0.0720721,-9279.28,9.60E+14
0.0730731,-9269.27,9.59E+14
0.0740741,-9259.26,9.58E+14
0.0750751,-9249.25,9.57E+14
0.0760761,-9239.24,9.56E+14
0.0770771,-9229.23,9.55E+14
0.0780781,-9219.22,9.53E+14
0.0790791,-9209.21,9.52E+14
0.0800801,-9199.2,9.51E+14
0.0810811,-9189.19,9.50E+14
0.0820821,-9179.18,9.49E+14
0.0830831,-9169.17,9.47E+14
0.0840841,-9159.16,9.46E+14
0.0850851,-9149.15,9.45E+14
0.0860861,-9139.14,9.43E+14
0.0870871,-9129.13,9.42E+14
0.0880881,-9119.12,9.41E+14
0.0890891,-9109.11,9.39E+14
0.0900901,-9099.1,9.38E+14
0.0910911,-9089.09,9.37E+14
0.0920921,-9079.08,9.35E+14
0.0930931,-9069.07,9.34E+14
0.0940941,-9059.06,9.33E+14
0.0950951,-9049.05,9.31E+14
0.0960961,-9039.04,9.30E+14
0.0970971,-9029.03,9.28E+14
0.0980981,-9019.02,9.27E+14
0.0990991,-9009.01,9.25E+14
0.1001,-8999,9.24E+14
0.101101,-8988.99,9.22E+14
0.102102,-8978.98,9.21E+14
0.103103,-8968.97,9.19E+14
0.104104,-8958.96,9.18E+14
0.105105,-8948.95,9.16E+14
0.106106,-8938.94,9.15E+14
0.107107,-8928.93,9.13E+14
0.108108,-8918.92,9.12E+14
0.109109,-8908.91,9.10E+14
0.11011,-8898.9,9.09E+14
0.111111,-8888.89,9.07E+14
0.112112,-8878.88,9.05E+14
0.113113,-8868.87,9.04E+14
0.114114,-8858.86,9.02E+14
0.115115,-8848.85,9.00E+14
0.116116,-8838.84,8.99E+14
0.117117,-8828.83,8.97E+14
0.118118,-8818.82,8.95E+14
0.119119,-8808.81,8.94E+14
0.12012,-8798.8,8.92E+14
0.121121,-8788.79,8.90E+14
0.122122,-8778.78,8.89E+14
0.123123,-8768.77,8.87E+14
0.124124,-8758.76,8.85E+14
0.125125,-8748.75,8.83E+14
0.126126,-8738.74,8.82E+14
0.127127,-8728.73,8.80E+14
0.128128,-8718.72,8.78E+14
0.129129,-8708.71,8.76E+14
0.13013,-8698.7,8.74E+14
0.131131,-8688.69,8.72E+14
0.132132,-8678.68,8.71E+14
0.133133,-8668.67,8.69E+14
0.134134,-8658.66,8.67E+14
0.135135,-8648.65,8.65E+14
0.136136,-8638.64,8.63E+14
0.137137,-8628.63,8.61E+14
0.138138,-8618.62,8.59E+14
0.139139,-8608.61,8.58E+14
0.14014,-8598.6,8.56E+14
0.141141,-8588.59,8.54E+14
0.142142,-8578.58,8.52E+14
0.143143,-8568.57,8.50E+14
0.144144,-8558.56,8.48E+14
0.145145,-8548.55,8.46E+14
0.146146,-8538.54,8.44E+14
0.147147,-8528.53,8.42E+14
0.148148,-8518.52,8.40E+14
0.149149,-8508.51,8.38E+14
0.15015,-8498.5,8.36E+14
0.151151,-8488.49,8.34E+14
0.152152,-8478.48,8.32E+14
0.153153,-8468.47,8.30E+14
0.154154,-8458.46,8.28E+14
0.155155,-8448.45,8.26E+14
0.156156,-8438.44,8.24E+14
0.157157,-8428.43,8.22E+14
0.158158,-8418.42,8.20E+14
0.159159,-8408.41,8.18E+14
0.16016,-8398.4,8.15E+14
0.161161,-8388.39,8.13E+14
0.162162,-8378.38,8.11E+14
0.163163,-8368.37,8.09E+14
0.164164,-8358.36,8.07E+14
0.165165,-8348.35,8.05E+14
0.166166,-8338.34,8.03E+14
0.167167,-8328.33,8.01E+14
0.168168,-8318.32,7.99E+14
0.169169,-8308.31,7.96E+14
0.17017,-8298.3,7.94E+14
0.171171,-8288.29,7.92E+14
0.172172,-8278.28,7.90E+14
0.173173,-8268.27,7.88E+14
0.174174,-8258.26,7.86E+14
0.175175,-8248.25,7.83E+14
0.176176,-8238.24,7.81E+14
0.177177,-8228.23,7.79E+14
0.178178,-8218.22,7.77E+14
0.179179,-8208.21,7.74E+14
0.18018,-8198.2,7.72E+14
0.181181,-8188.19,7.70E+14
0.182182,-8178.18,7.68E+14
0.183183,-8168.17,7.66E+14
0.184184,-8158.16,7.63E+14
0.185185,-8148.15,7.61E+14
0.186186,-8138.14,7.59E+14
0.187187,-8128.13,7.57E+14
0.188188,-8118.12,7.54E+14
0.189189,-8108.11,7.52E+14
0.19019,-8098.1,7.50E+14
0.191191,-8088.09,7.47E+14
0.192192,-8078.08,7.45E+14
0.193193,-8068.07,7.43E+14
0.194194,-8058.06,7.41E+14
0.195195,-8048.05,7.38E+14
0.196196,-8038.04,7.36E+14
0.197197,-8028.03,7.34E+14
0.198198,-8018.02,7.31E+14
0.199199,-8008.01,7.29E+14
0.2002,-7998,7.27E+14
0.201201,-7987.99,7.24E+14
0.202202,-7977.98,7.22E+14
0.203203,-7967.97,7.20E+14
0.204204,-7957.96,7.17E+14
0.205205,-7947.95,7.15E+14
0.206206,-7937.94,7.13E+14
0.207207,-7927.93,7.10E+14
0.208208,-7917.92,7.08E+14
0.209209,-7907.91,7.06E+14
0.21021,-7897.9,7.03E+14
0.211211,-7887.89,7.01E+14
0.212212,-7877.88,6.98E+14
0.213213,-7867.87,6.96E+14
0.214214,-7857.86,6.94E+14
0.215215,-7847.85,6.91E+14
0.216216,-7837.84,6.89E+14
0.217217,-7827.83,6.87E+14
0.218218,-7817.82,6.84E+14
0.219219,-7807.81,6.82E+14
0.22022,-7797.8,6.79E+14
0.221221,-7787.79,6.77E+14
0.222222,-7777.78,6.75E+14
0.223223,-7767.77,6.72E+14
0.224224,-7757.76,6.70E+14
0.225225,-7747.75,6.67E+14
0.226226,-7737.74,6.65E+14
0.227227,-7727.73,6.63E+14
0.228228,-7717.72,6.60E+14
0.229229,-7707.71,6.58E+14
0.23023,-7697.7,6.55E+14
0.231231,-7687.69,6.53E+14
0.232232,-7677.68,6.51E+14
0.233233,-7667.67,6.48E+14
0.234234,-7657.66,6.46E+14
0.235235,-7647.65,6.43E+14
0.236236,-7637.64,6.41E+14
0.237237,-7627.63,6.38E+14
0.238238,-7617.62,6.36E+14
0.239239,-7607.61,6.34E+14
0.24024,-7597.6,6.31E+14
0.241241,-7587.59,6.29E+14
0.242242,-7577.58,6.26E+14
0.243243,-7567.57,6.24E+14
0.244244,-7557.56,6.21E+14
0.245245,-7547.55,6.19E+14
0.246246,-7537.54,6.17E+14
0.247247,-7527.53,6.14E+14
0.248248,-7517.52,6.12E+14
0.249249,-7507.51,6.09E+14
0.25025,-7497.5,6.07E+14
0.251251,-7487.49,6.04E+14
0.252252,-7477.48,6.02E+14
0.253253,-7467.47,6.00E+14
0.254254,-7457.46,5.97E+14
0.255255,-7447.45,5.95E+14
0.256256,-7437.44,5.92E+14
0.257257,-7427.43,5.90E+14
0.258258,-7417.42,5.88E+14
0.259259,-7407.41,5.85E+14
0.26026,-7397.4,5.83E+14
0.261261,-7387.39,5.80E+14
0.262262,-7377.38,5.78E+14
0.263263,-7367.37,5.75E+14
0.264264,-7357.36,5.73E+14
0.265265,-7347.35,5.71E+14
0.266266,-7337.34,5.68E+14
0.267267,-7327.33,5.66E+14
0.268268,-7317.32,5.63E+14
0.269269,-7307.31,5.61E+14
0.27027,-7297.3,5.58E+14
0.271271,-7287.29,5.56E+14
0.272272,-7277.28,5.54E+14
0.273273,-7267.27,5.51E+14
0.274274,-7257.26,5.49E+14
0.275275,-7247.25,5.46E+14
0.276276,-7237.24,5.44E+14
0.277277,-7227.23,5.42E+14
0.278278,-7217.22,5.39E+14
0.279279,-7207.21,5.37E+14
0.28028,-7197.2,5.34E+14
0.281281,-7187.19,5.32E+14
0.282282,-7177.18,5.30E+14
0.283283,-7167.17,5.27E+14
0.284284,-7157.16,5.25E+14
0.285285,-7147.15,5.22E+14
0.286286,-7137.14,5.20E+14
0.287287,-7127.13,5.18E+14
0.288288,-7117.12,5.15E+14
0.289289,-7107.11,5.13E+14
0.29029,-7097.1,5.11E+14
0.291291,-7087.09,5.08E+14
0.292292,-7077.08,5.06E+14
0.293293,-7067.07,5.03E+14
0.294294,-7057.06,5.01E+14
0.295295,-7047.05,4.99E+14
0.296296,-7037.04,4.96E+14
0.297297,-7027.03,4.94E+14
0.298298,-7017.02,4.92E+14
0.299299,-7007.01,4.89E+14
0.3003,-6997,4.87E+14
0.301301,-6986.99,4.85E+14
0.302302,-6976.98,4.82E+14
0.303303,-6966.97,4.80E+14
0.304304,-6956.96,4.78E+14
0.305305,-6946.95,4.75E+14
0.306306,-6936.94,4.73E+14
0.307307,-6926.93,4.71E+14
0.308308,-6916.92,4.68E+14
0.309309,-6906.91,4.66E+14
0.31031,-6896.9,4.64E+14
0.311311,-6886.89,4.62E+14
0.312312,-6876.88,4.59E+14
0.313313,-6866.87,4.57E+14
0.314314,-6856.86,4.55E+14
0.315315,-6846.85,4.52E+14
0.316316,-6836.84,4.50E+14
0.317317,-6826.83,4.48E+14
0.318318,-6816.82,4.46E+14
0.319319,-6806.81,4.43E+14
0.32032,-6796.8,4.41E+14
0.321321,-6786.79,4.39E+14
0.322322,-6776.78,4.37E+14
0.323323,-6766.77,4.34E+14
0.324324,-6756.76,4.32E+14
0.325325,-6746.75,4.30E+14
0.326326,-6736.74,4.28E+14
0.327327,-6726.73,4.25E+14
0.328328,-6716.72,4.23E+14
0.329329,-6706.71,4.21E+14
0.33033,-6696.7,4.19E+14
0.331331,-6686.69,4.17E+14
0.332332,-6676.68,4.14E+14
0.333333,-6666.67,4.12E+14
0.334334,-6656.66,4.10E+14
0.335335,-6646.65,4.08E+14
0.336336,-6636.64,4.06E+14
0.337337,-6626.63,4.03E+14
0.338338,-6616.62,4.01E+14
0.339339,-6606.61,3.99E+14
0.34034,-6596.6,3.97E+14
0.341341,-6586.59,3.95E+14
0.342342,-6576.58,3.93E+14
0.343343,-6566.57,3.90E+14
0.344344,-6556.56,3.88E+14
0.345345,-6546.55,3.86E+14
0.346346,-6536.54,3.84E+14
0.347347,-6526.53,3.82E+14
0.348348,-6516.52,3.80E+14
0.349349,-6506.51,3.78E+14
0.35035,-6496.5,3.76E+14
0.351351,-6486.49,3.73E+14
0.352352,-6476.48,3.71E+14
0.353353,-6466.47,3.69E+14
0.354354,-6456.46,3.67E+14
0.355355,-6446.45,3.65E+14
0.356356,-6436.44,3.63E+14
0.357357,-6426.43,3.61E+14
0.358358,-6416.42,3.59E+14
0.359359,-6406.41,3.57E+14
0.36036,-6396.4,3.55E+14
0.361361,-6386.39,3.53E+14
0.362362,-6376.38,3.51E+14
0.363363,-6366.37,3.49E+14
0.364364,-6356.36,3.47E+14
0.365365,-6346.35,3.45E+14
0.366366,-6336.34,3.43E+14
0.367367,-6326.33,3.41E+14
0.368368,-6316.32,3.39E+14
0.369369,-6306.31,3.37E+14
0.37037,-6296.3,3.35E+14
0.371371,-6286.29,3.33E+14
0.372372,-6276.28,3.31E+14
0.373373,-6266.27,3.29E+14
0.374374,-6256.26,3.27E+14
0.375375,-6246.25,3.25E+14
0.376376,-6236.24,3.23E+14
0.377377,-6226.23,3.21E+14
0.378378,-6216.22,3.19E+14
0.379379,-6206.21,3.17E+14
0.38038,-6196.2,3.15E+14
0.381381,-6186.19,3.13E+14
0.382382,-6176.18,3.11E+14
0.383383,-6166.17,3.10E+14
0.384384,-6156.16,3.08E+14
0.385385,-6146.15,3.06E+14
0.386386,-6136.14,3.04E+14
0.387387,-6126.13,3.02E+14
0.388388,-6116.12,3.00E+14
0.389389,-6106.11,2.98E+14
0.39039,-6096.1,2.96E+14
0.391391,-6086.09,2.95E+14
0.392392,-6076.08,2.93E+14
0.393393,-6066.07,2.91E+14
0.394394,-6056.06,2.89E+14
0.395395,-6046.05,2.87E+14
0.396396,-6036.04,2.85E+14
0.397397,-6026.03,2.84E+14
0.398398,-6016.02,2.82E+14
0.399399,-6006.01,2.80E+14
0.4004,-5996,2.78E+14
0.401401,-5985.99,2.77E+14
0.402402,-5975.98,2.75E+14
0.403403,-5965.97,2.73E+14
0.404404,-5955.96,2.71E+14
0.405405,-5945.95,2.70E+14
0.406406,-5935.94,2.68E+14
0.407407,-5925.93,2.66E+14
0.408408,-5915.92,2.64E+14
0.409409,-5905.91,2.63E+14
0.41041,-5895.9,2.61E+14
0.411411,-5885.89,2.59E+14
0.412412,-5875.88,2.57E+14
0.413413,-5865.87,2.56E+14
0.414414,-5855.86,2.54E+14
0.415415,-5845.85,2.52E+14
0.416416,-5835.84,2.51E+14
0.417417,-5825.83,2.49E+14
0.418418,-5815.82,2.47E+14
0.419419,-5805.81,2.46E+14
0.42042,-5795.8,2.44E+14
0.421421,-5785.79,2.43E+14
0.422422,-5775.78,2.41E+14
0.423423,-5765.77,2.39E+14
0.424424,-5755.76,2.38E+14
0.425425,-5745.75,2.36E+14
0.426426,-5735.74,2.34E+14
0.427427,-5725.73,2.33E+14
0.428428,-5715.72,2.31E+14
0.429429,-5705.71,2.30E+14
0.43043,-5695.7,2.28E+14
0.431431,-5685.69,2.27E+14
0.432432,-5675.68,2.25E+14
0.433433,-5665.67,2.23E+14
0.434434,-5655.66,2.22E+14
0.435435,-5645.65,2.20E+14
0.436436,-5635.64,2.19E+14
0.437437,-5625.63,2.17E+14
0.438438,-5615.62,2.16E+14
0.439439,-5605.61,2.14E+14
0.44044,-5595.6,2.13E+14
0.441441,-5585.59,2.11E+14
0.442442,-5575.58,2.10E+14
0.443443,-5565.57,2.08E+14
0.444444,-5555.56,2.07E+14
0.445445,-5545.55,2.05E+14
0.446446,-5535.54,2.04E+14
0.447447,-5525.53,2.03E+14
0.448448,-5515.52,2.01E+14
0.449449,-5505.51,2.00E+14
0.45045,-5495.5,1.98E+14
0.451451,-5485.49,1.97E+14
0.452452,-5475.48,1.95E+14
0.453453,-5465.47,1.94E+14
0.454454,-5455.46,1.93E+14
0.455455,-5445.45,1.91E+14
0.456456,-5435.44,1.90E+14
0.457457,-5425.43,1.88E+14
0.458458,-5415.42,1.87E+14
0.459459,-5405.41,1.86E+14
0.46046,-5395.4,1.84E+14
0.461461,-5385.39,1.83E+14
0.462462,-5375.38,1.82E+14
0.463463,-5365.37,1.80E+14
0.464464,-5355.36,1.79E+14
0.465465,-5345.35,1.78E+14
0.466466,-5335.34,1.76E+14
0.467467,-5325.33,1.75E+14
0.468468,-5315.32,1.74E+14
0.469469,-5305.31,1.72E+14
0.47047,-5295.3,1.71E+14
0.471471,-5285.29,1.70E+14
0.472472,-5275.28,1.69E+14
0.473473,-5265.27,1.67E+14
0.474474,-5255.26,1.66E+14
0.475475,-5245.25,1.65E+14
0.476476,-5235.24,1.64E+14
0.477477,-5225.23,1.62E+14
0.478478,-5215.22,1.61E+14
0.479479,-5205.21,1.60E+14
0.48048,-5195.2,1.59E+14
0.481481,-5185.19,1.58E+14
0.482482,-5175.18,1.56E+14
0.483483,-5165.17,1.55E+14
0.484484,-5155.16,1.54E+14
0.485485,-5145.15,1.53E+14
0.486486,-5135.14,1.52E+14
0.487487,-5125.13,1.50E+14
0.488488,-5115.12,1.49E+14
0.489489,-5105.11,1.48E+14
0.49049,-5095.1,1.47E+14
0.491491,-5085.09,1.46E+14
0.492492,-5075.08,1.45E+14
0.493493,-5065.07,1.44E+14
0.494494,-5055.06,1.42E+14
0.495495,-5045.05,1.41E+14
0.496496,-5035.04,1.40E+14
0.497497,-5025.03,1.39E+14
0.498498,-5015.02,1.38E+14
0.499499,-5005.01,1.37E+14
0.500501,-4994.99,1.36E+14
0.501502,-4984.98,1.35E+14
0.502503,-4974.97,1.34E+14
0.503504,-4964.96,1.33E+14
0.504505,-4954.95,1.32E+14
0.505506,-4944.94,1.30E+14
0.506507,-4934.93,1.29E+14
0.507508,-4924.92,1.28E+14
0.508509,-4914.91,1.27E+14
0.50951,-4904.9,1.26E+14
0.510511,-4894.89,1.25E+14
0.511512,-4884.88,1.24E+14
0.512513,-4874.87,1.23E+14
0.513514,-4864.86,1.22E+14
0.514515,-4854.85,1.21E+14
0.515516,-4844.84,1.20E+14
0.516517,-4834.83,1.19E+14
0.517518,-4824.82,1.18E+14
0.518519,-4814.81,1.17E+14
0.51952,-4804.8,1.16E+14
0.520521,-4794.79,1.15E+14
0.521522,-4784.78,1.15E+14
0.522523,-4774.77,1.14E+14
0.523524,-4764.76,1.13E+14
0.524525,-4754.75,1.12E+14
0.525526,-4744.74,1.11E+14
0.526527,-4734.73,1.10E+14
0.527528,-4724.72,1.09E+14
0.528529,-4714.71,1.08E+14
0.52953,-4704.7,1.07E+14
0.530531,-4694.69,1.06E+14
0.531532,-4684.68,1.05E+14
0.532533,-4674.67,1.04E+14
0.533534,-4664.66,1.04E+14
0.534535,-4654.65,1.03E+14
0.535536,-4644.64,1.02E+14
0.536537,-4634.63,1.01E+14
0.537538,-4624.62,1.00E+14
0.538539,-4614.61,9.93E+13
0.53954,-4604.6,9.84E+13
0.540541,-4594.59,9.76E+13
0.541542,-4584.58,9.67E+13
0.542543,-4574.57,9.59E+13
0.543544,-4564.56,9.51E+13
0.544545,-4554.55,9.43E+13
0.545546,-4544.54,9.35E+13
0.546547,-4534.53,9.27E+13
0.547548,-4524.52,9.19E+13
0.548549,-4514.51,9.11E+13
0.54955,-4504.5,9.03E+13
0.550551,-4494.49,8.95E+13
0.551552,-4484.48,8.87E+13
0.552553,-4474.47,8.79E+13
0.553554,-4464.46,8.72E+13
0.554555,-4454.45,8.64E+13
0.555556,-4444.44,8.57E+13
0.556557,-4434.43,8.49E+13
0.557558,-4424.42,8.42E+13
0.558559,-4414.41,8.34E+13
0.55956,-4404.4,8.27E+13
0.560561,-4394.39,8.20E+13
0.561562,-4384.38,8.12E+13
0.562563,-4374.37,8.05E+13
0.563564,-4364.36,7.98E+13
0.564565,-4354.35,7.91E+13
0.565566,-4344.34,7.84E+13
0.566567,-4334.33,7.77E+13
0.567568,-4324.32,7.70E+13
0.568569,-4314.31,7.63E+13
0.56957,-4304.3,7.56E+13
0.570571,-4294.29,7.49E+13
0.571572,-4284.28,7.43E+13
0.572573,-4274.27,7.36E+13
0.573574,-4264.26,7.29E+13
0.574575,-4254.25,7.23E+13
0.575576,-4244.24,7.16E+13
0.576577,-4234.23,7.10E+13
0.577578,-4224.22,7.03E+13
0.578579,-4214.21,6.97E+13
0.57958,-4204.2,6.91E+13
0.580581,-4194.19,6.84E+13
0.581582,-4184.18,6.78E+13
0.582583,-4174.17,6.72E+13
0.583584,-4164.16,6.66E+13
0.584585,-4154.15,6.60E+13
0.585586,-4144.14,6.54E+13
0.586587,-4134.13,6.48E+13
0.587588,-4124.12,6.42E+13
0.588589,-4114.11,6.36E+13
0.58959,-4104.1,6.30E+13
0.590591,-4094.09,6.24E+13
0.591592,-4084.08,6.18E+13
0.592593,-4074.07,6.12E+13
0.593594,-4064.06,6.07E+13
0.594595,-4054.05,6.01E+13
0.595596,-4044.04,5.96E+13
0.596597,-4034.03,5.90E+13
0.597598,-4024.02,5.84E+13
0.598599,-4014.01,5.79E+13
0.5996,-4004,5.74E+13
0.600601,-3993.99,5.68E+13
0.601602,-3983.98,5.63E+13
0.602603,-3973.97,5.57E+13
0.603604,-3963.96,5.52E+13
0.604605,-3953.95,5.47E+13
0.605606,-3943.94,5.42E+13
0.606607,-3933.93,5.37E+13
0.607608,-3923.92,5.32E+13
0.608609,-3913.91,5.27E+13
0.60961,-3903.9,5.22E+13
0.610611,-3893.89,5.17E+13
0.611612,-3883.88,5.12E+13
0.612613,-3873.87,5.07E+13
0.613614,-3863.86,5.02E+13
0.614615,-3853.85,4.97E+13
0.615616,-3843.84,4.92E+13
0.616617,-3833.83,4.88E+13
0.617618,-3823.82,4.83E+13
0.618619,-3813.81,4.78E+13
0.61962,-3803.8,4.74E+13
0.620621,-3793.79,4.69E+13
0.621622,-3783.78,4.64E+13
0.622623,-3773.77,4.60E+13
0.623624,-3763.76,4.55E+13
0.624625,-3753.75,4.51E+13
0.625626,-3743.74,4.47E+13
0.626627,-3733.73,4.42E+13
0.627628,-3723.72,4.38E+13
0.628629,-3713.71,4.34E+13
0.62963,-3703.7,4.29E+13
0.630631,-3693.69,4.25E+13
0.631632,-3683.68,4.21E+13
0.632633,-3673.67,4.17E+13
0.633634,-3663.66,4.13E+13
0.634635,-3653.65,4.09E+13
0.635636,-3643.64,4.05E+13
0.636637,-3633.63,4.01E+13
0.637638,-3623.62,3.97E+13
0.638639,-3613.61,3.93E+13
0.63964,-3603.6,3.89E+13
0.640641,-3593.59,3.85E+13
0.641642,-3583.58,3.81E+13
0.642643,-3573.57,3.77E+13
0.643644,-3563.56,3.74E+13
0.644645,-3553.55,3.70E+13
0.645646,-3543.54,3.66E+13
0.646647,-3533.53,3.63E+13
0.647648,-3523.52,3.59E+13
0.648649,-3513.51,3.55E+13
0.64965,-3503.5,3.52E+13
0.650651,-3493.49,3.48E+13
0.651652,-3483.48,3.45E+13
0.652653,-3473.47,3.41E+13
0.653654,-3463.46,3.38E+13
0.654655,-3453.45,3.34E+13
0.655656,-3443.44,3.31E+13
0.656657,-3433.43,3.28E+13
0.657658,-3423.42,3.24E+13
0.658659,-3413.41,3.21E+13
0.65966,-3403.4,3.18E+13
0.660661,-3393.39,3.14E+13
0.661662,-3383.38,3.11E+13
0.662663,-3373.37,3.08E+13
0.663664,-3363.36,3.05E+13
0.664665,-3353.35,3.02E+13
0.665666,-3343.34,2.99E+13
0.666667,-3333.33,2.96E+13
0.667668,-3323.32,2.93E+13
0.668669,-3313.31,2.90E+13
0.66967,-3303.3,2.87E+13
0.670671,-3293.29,2.84E+13
0.671672,-3283.28,2.81E+13
0.672673,-3273.27,2.78E+13
0.673674,-3263.26,2.75E+13
0.674675,-3253.25,2.72E+13
0.675676,-3243.24,2.69E+13
0.676677,-3233.23,2.67E+13
0.677678,-3223.22,2.64E+13
0.678679,-3213.21,2.61E+13
0.67968,-3203.2,2.58E+13
0.680681,-3193.19,2.56E+13
0.681682,-3183.18,2.53E+13
0.682683,-3173.17,2.50E+13
0.683684,-3163.16,2.48E+13
0.684685,-3153.15,2.45E+13
0.685686,-3143.14,2.43E+13
0.686687,-3133.13,2.40E+13
0.687688,-3123.12,2.37E+13
0.688689,-3113.11,2.35E+13
0.68969,-3103.1,2.33E+13
0.690691,-3093.09,2.30E+13
0.691692,-3083.08,2.28E+13
0.692693,-3073.07,2.25E+13
0.693694,-3063.06,2.23E+13
0.694695,-3053.05,2.21E+13
0.695696,-3043.04,2.18E+13
0.696697,-3033.03,2.16E+13
0.697698,-3023.02,2.14E+13
0.698699,-3013.01,2.11E+13
0.6997,-3003,2.09E+13
0.700701,-2992.99,2.07E+13
0.701702,-2982.98,2.05E+13
0.702703,-2972.97,2.02E+13
0.703704,-2962.96,2.00E+13
0.704705,-2952.95,1.98E+13
0.705706,-2942.94,1.96E+13
0.706707,-2932.93,1.94E+13
0.707708,-2922.92,1.92E+13
0.708709,-2912.91,1.90E+13
0.70971,-2902.9,1.88E+13
0.710711,-2892.89,1.86E+13
0.711712,-2882.88,1.84E+13
0.712713,-2872.87,1.82E+13
0.713714,-2862.86,1.80E+13
0.714715,-2852.85,1.78E+13
0.715716,-2842.84,1.76E+13
0.716717,-2832.83,1.74E+13
0.717718,-2822.82,1.72E+13
0.718719,-2812.81,1.70E+13
0.71972,-2802.8,1.69E+13
0.720721,-2792.79,1.67E+13
0.721722,-2782.78,1.65E+13
0.722723,-2772.77,1.63E+13
0.723724,-2762.76,1.61E+13
0.724725,-2752.75,1.60E+13
0.725726,-2742.74,1.58E+13
0.726727,-2732.73,1.56E+13
0.727728,-2722.72,1.55E+13
0.728729,-2712.71,1.53E+13
0.72973,-2702.7,1.51E+13
0.730731,-2692.69,1.50E+13
0.731732,-2682.68,1.48E+13
0.732733,-2672.67,1.46E+13
0.733734,-2662.66,1.45E+13
0.734735,-2652.65,1.43E+13
0.735736,-2642.64,1.42E+13
0.736737,-2632.63,1.40E+13
0.737738,-2622.62,1.39E+13
0.738739,-2612.61,1.37E+13
0.73974,-2602.6,1.36E+13
0.740741,-2592.59,1.34E+13
0.741742,-2582.58,1.33E+13
0.742743,-2572.57,1.31E+13
0.743744,-2562.56,1.30E+13
0.744745,-2552.55,1.28E+13
0.745746,-2542.54,1.27E+13
0.746747,-2532.53,1.26E+13
0.747748,-2522.52,1.24E+13
0.748749,-2512.51,1.23E+13
0.74975,-2502.5,1.21E+13
0.750751,-2492.49,1.20E+13
0.751752,-2482.48,1.19E+13
0.752753,-2472.47,1.17E+13
0.753754,-2462.46,1.16E+13
0.754755,-2452.45,1.15E+13
0.755756,-2442.44,1.14E+13
0.756757,-2432.43,1.12E+13
0.757758,-2422.42,1.11E+13
0.758759,-2412.41,1.10E+13
0.75976,-2402.4,1.09E+13
0.760761,-2392.39,1.08E+13
0.761762,-2382.38,1.06E+13
0.762763,-2372.37,1.05E+13
0.763764,-2362.36,1.04E+13
0.764765,-2352.35,1.03E+13
0.765766,-2342.34,1.02E+13
0.766767,-2332.33,1.01E+13
0.767768,-2322.32,9.95E+12
0.768769,-2312.31,9.84E+12
0.76977,-2302.3,9.74E+12
0.770771,-2292.29,9.63E+12
0.771772,-2282.28,9.52E+12
0.772773,-2272.27,9.42E+12
0.773774,-2262.26,9.31E+12
0.774775,-2252.25,9.21E+12
0.775776,-2242.24,9.11E+12
0.776777,-2232.23,9.01E+12
0.777778,-2222.22,8.91E+12
0.778779,-2212.21,8.81E+12
0.77978,-2202.2,8.72E+12
0.780781,-2192.19,8.62E+12
0.781782,-2182.18,8.53E+12
0.782783,-2172.17,8.43E+12
0.783784,-2162.16,8.34E+12
0.784785,-2152.15,8.25E+12
0.785786,-2142.14,8.16E+12
0.786787,-2132.13,8.07E+12
0.787788,-2122.12,7.98E+12
0.788789,-2112.11,7.89E+12
0.78979,-2102.1,7.80E+12
0.790791,-2092.09,7.72E+12
0.791792,-2082.08,7.63E+12
0.792793,-2072.07,7.55E+12
0.793794,-2062.06,7.47E+12
0.794795,-2052.05,7.39E+12
0.795796,-2042.04,7.31E+12
0.796797,-2032.03,7.23E+12
0.797798,-2022.02,7.15E+12
0.798799,-2012.01,7.07E+12
0.7998,-2002,6.99E+12
0.800801,-1991.99,6.92E+12
0.801802,-1981.98,6.84E+12
0.802803,-1971.97,6.77E+12
0.803804,-1961.96,6.69E+12
0.804805,-1951.95,6.62E+12
0.805806,-1941.94,6.55E+12
0.806807,-1931.93,6.48E+12
0.807808,-1921.92,6.41E+12
0.808809,-1911.91,6.34E+12
0.80981,-1901.9,6.27E+12
0.810811,-1891.89,6.20E+12
0.811812,-1881.88,6.13E+12
0.812813,-1871.87,6.07E+12
0.813814,-1861.86,6.00E+12
0.814815,-1851.85,5.94E+12
0.815816,-1841.84,5.87E+12
0.816817,-1831.83,5.81E+12
0.817818,-1821.82,5.75E+12
0.818819,-1811.81,5.68E+12
0.81982,-1801.8,5.62E+12
0.820821,-1791.79,5.56E+12
0.821822,-1781.78,5.50E+12
0.822823,-1771.77,5.44E+12
0.823824,-1761.76,5.39E+12
0.824825,-1751.75,5.33E+12
0.825826,-1741.74,5.27E+12
0.826827,-1731.73,5.21E+12
0.827828,-1721.72,5.16E+12
0.828829,-1711.71,5.10E+12
0.82983,-1701.7,5.05E+12
0.830831,-1691.69,5.00E+12
0.831832,-1681.68,4.94E+12
0.832833,-1671.67,4.89E+12
0.833834,-1661.66,4.84E+12
0.834835,-1651.65,4.79E+12
0.835836,-1641.64,4.74E+12
0.836837,-1631.63,4.69E+12
0.837838,-1621.62,4.64E+12
0.838839,-1611.61,4.59E+12
0.83984,-1601.6,4.54E+12
0.840841,-1591.59,4.50E+12
0.841842,-1581.58,4.45E+12
0.842843,-1571.57,4.40E+12
0.843844,-1561.56,4.36E+12
0.844845,-1551.55,4.31E+12
0.845846,-1541.54,4.27E+12
0.846847,-1531.53,4.22E+12
0.847848,-1521.52,4.18E+12
0.848849,-1511.51,4.14E+12
0.84985,-1501.5,4.10E+12
0.850851,-1491.49,4.05E+12
0.851852,-1481.48,4.01E+12
0.852853,-1471.47,3.97E+12
0.853854,-1461.46,3.93E+12
0.854855,-1451.45,3.89E+12
0.855856,-1441.44,3.85E+12
0.856857,-1431.43,3.81E+12
0.857858,-1421.42,3.77E+12
0.858859,-1411.41,3.74E+12
0.85986,-1401.4,3.70E+12
0.860861,-1391.39,3.66E+12
0.861862,-1381.38,3.63E+12
0.862863,-1371.37,3.59E+12
0.863864,-1361.36,3.55E+12
0.864865,-1351.35,3.52E+12
0.865866,-1341.34,3.48E+12
0.866867,-1331.33,3.45E+12
0.867868,-1321.32,3.42E+12
0.868869,-1311.31,3.38E+12
0.86987,-1301.3,3.35E+12
0.870871,-1291.29,3.32E+12
0.871872,-1281.28,3.29E+12
0.872873,-1271.27,3.25E+12
0.873874,-1261.26,3.22E+12
0.874875,-1251.25,3.19E+12
0.875876,-1241.24,3.16E+12
0.876877,-1231.23,3.13E+12
0.877878,-1221.22,3.10E+12
0.878879,-1211.21,3.07E+12
0.87988,-1201.2,3.04E+12
0.880881,-1191.19,3.01E+12
0.881882,-1181.18,2.99E+12
0.882883,-1171.17,2.96E+12
0.883884,-1161.16,2.93E+12
0.884885,-1151.15,2.90E+12
0.885886,-1141.14,2.88E+12
0.886887,-1131.13,2.85E+12
0.887888,-1121.12,2.82E+12
0.888889,-1111.11,2.80E+12
0.88989,-1101.1,2.77E+12
0.890891,-1091.09,2.75E+12
0.891892,-1081.08,2.72E+12
0.892893,-1071.07,2.70E+12
0.893894,-1061.06,2.67E+12
0.894895,-1051.05,2.65E+12
0.895896,-1041.04,2.63E+12
0.896897,-1031.03,2.60E+12
0.897898,-1021.02,2.58E+12
0.898899,-1011.01,2.56E+12
0.8999,-1001,2.54E+12
0.900901,-990.991,2.51E+12
0.901902,-980.981,2.49E+12
0.902903,-970.971,2.47E+12
0.903904,-960.961,2.45E+12
0.904905,-950.951,2.43E+12
0.905906,-940.941,2.41E+12
0.906907,-930.931,2.39E+12
0.907908,-920.921,2.37E+12
0.908909,-910.911,2.35E+12
0.90991,-900.901,2.33E+12
0.910911,-890.891,2.31E+12
0.911912,-880.881,2.29E+12
0.912913,-870.871,2.27E+12
0.913914,-860.861,2.25E+12
0.914915,-850.851,2.24E+12
0.915916,-840.841,2.22E+12
0.916917,-830.831,2.20E+12
0.917918,-820.821,2.18E+12
0.918919,-810.811,2.16E+12
0.91992,-800.801,2.15E+12
0.920921,-790.791,2.13E+12
0.921922,-780.781,2.11E+12
0.922923,-770.771,2.10E+12
0.923924,-760.761,2.08E+12
0.924925,-750.751,2.07E+12
0.925926,-740.741,2.05E+12
0.926927,-730.731,2.03E+12
0.927928,-720.721,2.02E+12
0.928929,-710.711,2.00E+12
0.92993,-700.701,1.99E+12
0.930931,-690.691,1.98E+12
0.931932,-680.681,1.96E+12
0.932933,-670.671,1.95E+12
0.933934,-660.661,1.93E+12
0.934935,-650.651,1.92E+12
0.935936,-640.641,1.90E+12
0.936937,-630.631,1.89E+12
0.937938,-620.621,1.88E+12
0.938939,-610.611,1.86E+12
0.93994,-600.601,1.85E+12
0.940941,-590.591,1.84E+12
0.941942,-580.581,1.83E+12
0.942943,-570.571,1.81E+12
0.943944,-560.561,1.80E+12
0.944945,-550.551,1.79E+12
0.945946,-540.541,1.78E+12
0.946947,-530.531,1.77E+12
0.947948,-520.521,1.75E+12
0.948949,-510.511,1.74E+12
0.94995,-500.501,1.73E+12
0.950951,-490.49,1.72E+12
0.951952,-480.48,1.71E+12
0.952953,-470.47,1.70E+12
0.953954,-460.46,1.69E+12
0.954955,-450.45,1.68E+12
0.955956,-440.44,1.67E+12
0.956957,-430.43,1.66E+12
0.957958,-420.42,1.65E+12
0.958959,-410.41,1.64E+12
0.95996,-400.4,1.63E+12
0.960961,-390.39,1.62E+12
0.961962,-380.38,1.61E+12
0.962963,-370.37,1.60E+12
0.963964,-360.36,1.59E+12
0.964965,-350.35,1.58E+12
0.965966,-340.34,1.57E+12
0.966967,-330.33,1.56E+12
0.967968,-320.32,1.56E+12
0.968969,-310.31,1.55E+12
0.96997,-300.3,1.54E+12
0.970971,-290.29,1.53E+12
0.971972,-280.28,1.52E+12
0.972973,-270.27,1.51E+12
0.973974,-260.26,1.51E+12
0.974975,-250.25,1.50E+12
0.975976,-240.24,1.49E+12
0.976977,-230.23,1.48E+12
0.977978,-220.22,1.48E+12
0.978979,-210.21,1.47E+12
0.97998,-200.2,1.46E+12
0.980981,-190.19,1.45E+12
0.981982,-180.18,1.45E+12
0.982983,-170.17,1.44E+12
0.983984,-160.16,1.43E+12
0.984985,-150.15,1.43E+12
0.985986,-140.14,1.42E+12
0.986987,-130.13,1.41E+12
0.987988,-120.12,1.41E+12
0.988989,-110.11,1.40E+12
0.98999,-100.1,1.39E+12
0.990991,-90.0901,1.39E+12
0.991992,-80.0801,1.38E+12
0.992993,-70.0701,1.38E+12
0.993994,-60.0601,1.37E+12
0.994995,-50.0501,1.36E+12
0.995996,-40.04,1.36E+12
0.996997,-30.03,1.35E+12
0.997998,-20.02,1.35E+12
0.998999,-10.01,1.34E+12
1,0,1.34E+12
