T(K)            rho(kg/m3)      h(J/kg)         s(J/K/kg)       Cp(J/K/kg)      p*kappa_T(1)    gamma(1)        V(m/s)          sigma(S/m)      eta(kg/m/s)     kappa(W/m/K)    
300.00          5.85547         -8.34767e+06    1998.46         670.333         1               1.0928          136.612         1e-06           1.45965e-05     0.0131978       
400.00          4.3916          -8.2738e+06     2210.1          797.014         1               1.07692         156.596         1e-06           1.88298e-05     0.0203157       
500.00          3.51328         -8.18975e+06    2397.32         878.362         1               1.0693          174.459         1e-06           2.3052e-05      0.0275336       
600.00          2.92773         -8.09904e+06    2562.56         932.175         1               1.06504         190.729         1e-06           2.72876e-05     0.0347244       
700.00          2.50949         -8.00393e+06    2709.11         967.637         1               1.06251         205.766         1e-06           3.15421e-05     0.0417878       
800.00          2.1958          -7.9059e+06     2839.96         991.316         1               1.06092         219.809         1e-06           3.58108e-05     0.0486995       
900.00          1.95182         -7.80587e+06    2957.77         1008.84         1               1.0598          233.02          1e-06           4.00834e-05     0.0555362       
1000.00         1.75663         -7.70416e+06    3064.91         1025.77         1.00001         1.05879         245.507         1e-06           4.4347e-05      0.0622969       
1100.00         1.59681         -7.6013e+06     3165.3          1035.86         1.00006         1.0584          257.447         1e-06           4.85891e-05     0.0694693       
1200.00         1.463           -7.49657e+06    3256.42         1063.25         1.00038         1.05808         268.878         1e-06           5.28031e-05     0.0790824       
1300.00         1.34725         -7.38685e+06    3344.19         1146.82         1.00191         1.05884         280.077         1e-06           5.70034e-05     0.0987409       
1400.00         1.24            -7.26174e+06    3436.79         1398.77         1.0076          1.06388         291.804         1e-06           6.12632e-05     0.149899        
1500.00         1.12625         -7.09321e+06    3552.81         2076.84         1.02513         1.08211         306.145         1e-06           6.57865e-05     0.281913        
1600.00         0.983021        -6.8139e+06     3732.5          3751.38         1.07088         1.13223         327.957         1e-06           7.10102e-05     0.587717        
1700.00         0.787007        -6.26935e+06    4061.44         7662.99         1.16959         1.2427          367.433         1e-06           7.76173e-05     1.18173         
1800.00         0.552735        -5.16359e+06    4691.5          14758.7         1.30177         1.39708         440.642         1e-06           8.57387e-05     1.87534         
1900.00         0.374491        -3.53417e+06    5572.32         15272           1.26216         1.37502         539.358         1e-06           9.27762e-05     1.54208         
2000.00         0.296036        -2.37468e+06    6168.56         8783.76         1.13592         1.25744         611.5           1e-06           9.70008e-05     0.896564        
2100.00         0.251463        -1.50607e+06    6592.19         9516.99         1.13996         1.271           665.871         1e-06           0.000100061     1.02538         
2200.00         0.211184        -426472         7094            11683.7         1.16921         1.31328         729.292         1e-06           0.000102607     1.21767         
2300.00         0.179277        699356          7594.7          10233.8         1.14414         1.30018         796.159         1e-06           0.000104936     1.03614         
2400.00         0.158355        1.57209e+06     7966.58         7327.73         1.09745         1.26394         852.814         1.90525e-07     0.000107385     0.76208         
2500.00         0.144253        2.22057e+06     8231.49         5979.91         1.07077         1.24169         896.595         8.50107e-07     0.00011002      0.661347        
2600.00         0.13286         2.82988e+06     8470.41         6459.92         1.06882         1.23552         932.77          3.36451e-06     0.000112762     0.741306        
2700.00         0.122094        3.54445e+06     8739.92         7864.24         1.08201         1.24708         971.59          1.28275e-05     0.000115561     0.904227        
2800.00         0.11175         4.37901e+06     9043.34         8583.49         1.09119         1.26209         1017.35         4.70759e-05     0.000118407     0.982593        
2900.00         0.102716        5.20764e+06     9334.21         7769.96         1.084           1.26639         1066.47         0.000154912     0.000121293     0.90215         
3000.00         0.0954837       5.90943e+06     9572.27         6244.13         1.06796         1.26687         1114.61         0.00044639      0.00012418      0.75477         
3100.00         0.0897883       6.46397e+06     9754.22         4915.97         1.05321         1.27268         1160.09         0.00114588      0.000127036     0.628844        
3200.00         0.0851593       6.90712e+06     9894.99         4012.29         1.04279         1.28421         1202.55         0.00267853      0.000129842     0.543529        
3300.00         0.0812428       7.27689e+06     10008.8         3422.39         1.03579         1.29863         1242.27         0.00579667      0.000132599     0.487055        
3400.00         0.0778295       7.59727e+06     10104.5         3004.69         1.03074         1.31461         1280.12         0.0117514       0.000135318     0.445867        
3500.00         0.0748022       7.88057e+06     10186.6         2670.94         1.02661         1.33237         1317.2          0.0225248       0.000138012     0.412014        
3600.00         0.0720907       8.13291e+06     10257.7         2381.7          1.02288         1.35264         1354.37         0.0411613       0.000140694     0.38241         
3700.00         0.069646        8.35801e+06     10319.4         2125.63         1.01943         1.37589         1392.08         0.0722732       0.000143373     0.356319        
3800.00         0.0674289       8.55914e+06     10373.1         1902.71         1.01626         1.40197         1430.36         0.122822        0.000146053     0.334097        
3900.00         0.0654057       8.73971e+06     10420           1714.57         1.01343         1.43015         1468.88         0.203245        0.000148737     0.316002        
4000.00         0.0635472       8.9032e+06      10461.4         1560.71         1.011           1.45917         1507.06         0.32892         0.000151427     0.301959        
4100.00         0.0618286       9.0529e+06      10498.4         1438.13         1.00895         1.48759         1544.23         0.521872        0.000154117     0.29159         
4200.00         0.0602294       9.19172e+06     10531.8         1342.37         1.00727         1.5141          1579.8          0.812527        0.000156808     0.284364        
4300.00         0.0587328       9.3221e+06      10562.5         1268.55         1.0059          1.53778         1613.35         1.24141         0.000159495     0.279705        
4400.00         0.0573253       9.44601e+06     10591           1212.11         1.00481         1.55814         1644.71         1.86062         0.000162179     0.277095        
4500.00         0.0559961       9.56497e+06     10617.7         1169.17         1.00393         1.5751          1673.88         2.73518         0.000164856     0.27609         
4600.00         0.0547365       9.68019e+06     10643.1         1136.59         1.00323         1.58885         1701            3.9443          0.000167526     0.276339        
4700.00         0.0535391       9.79256e+06     10667.2         1111.93         1.00267         1.59975         1726.28         5.58259         0.000170188     0.277572        
4800.00         0.0523982       9.90278e+06     10690.4         1093.35         1.00222         1.60817         1749.95         7.7612          0.00017284      0.279587        
4900.00         0.0513087       1.00114e+07     10712.8         1079.47         1.00186         1.61448         1772.22         10.6092         0.000175484     0.282242        
5000.00         0.0502664       1.01188e+07     10734.5         1069.26         1.00157         1.61902         1793.27         14.2744         0.000178118     0.285431        
5100.00         0.0492678       1.02253e+07     10755.6         1061.95         1.00134         1.62208         1813.27         18.9242         0.000180741     0.289083        
5200.00         0.0483097       1.03313e+07     10776.2         1057            1.00116         1.62388         1832.35         24.7456         0.000183355     0.293153        
5300.00         0.0473892       1.04368e+07     10796.3         1053.98         1.00101         1.6246          1850.61         31.9454         0.000185959     0.297619        
5400.00         0.0465039       1.05421e+07     10816           1052.64         1.00089         1.62436         1868.12         40.7481         0.000188553     0.302467        
5500.00         0.0456516       1.06474e+07     10835.3         1052.75         1.00079         1.62327         1884.93         51.3946         0.000191136     0.307699        
5600.00         0.0448302       1.07527e+07     10854.3         1054.21         1.00072         1.62138         1901.08         64.1382         0.00019371      0.313334        
5700.00         0.0440379       1.08583e+07     10873           1056.92         1.00067         1.61875         1916.59         79.2415         0.000196273     0.319381        
5800.00         0.0432731       1.09642e+07     10891.4         1060.85         1.00064         1.6154          1931.49         96.969          0.000198826     0.325868        
5900.00         0.0425341       1.10705e+07     10909.6         1065.99         1.00062         1.61137         1945.78         117.584         0.000201369     0.332824        
6000.00         0.0418196       1.11774e+07     10927.5         1072.35         1.00062         1.60666         1959.47         141.34          0.000203901     0.340275        
6100.00         0.0411281       1.1285e+07      10945.3         1079.98         1.00063         1.60128         1972.55         168.471         0.000206424     0.348257        
6200.00         0.0404586       1.13935e+07     10963           1088.92         1.00065         1.59526         1985.04         199.19          0.000208935     0.356798        
6300.00         0.0398097       1.15029e+07     10980.5         1099.23         1.00069         1.5886          1996.93         233.679         0.000211435     0.365936        
6400.00         0.0391805       1.16134e+07     10997.9         1110.99         1.00074         1.58133         2008.24         272.077         0.000213922     0.375701        
6500.00         0.0385698       1.17252e+07     11015.2         1124.27         1.00081         1.57348         2018.97         314.485         0.000216397     0.386125        
6600.00         0.0379768       1.18384e+07     11032.5         1139.16         1.00089         1.56507         2029.15         360.959         0.000218859     0.397245        
6700.00         0.0374005       1.19532e+07     11049.7         1155.75         1.00099         1.55614         2038.78         411.501         0.000221307     0.409079        
6800.00         0.03684         1.20697e+07     11067           1174.13         1.00111         1.54675         2047.9          466.072         0.000223737     0.421658        
6900.00         0.0362947       1.21882e+07     11084.3         1194.38         1.00125         1.53695         2056.55         524.58          0.000226152     0.435007        
7000.00         0.0357636       1.23088e+07     11101.7         1216.61         1.0014          1.5268          2064.74         586.89          0.000228549     0.449145        
7100.00         0.0352461       1.24317e+07     11119.1         1240.89         1.00158         1.51635         2072.54         652.831         0.000230924     0.464087        
7200.00         0.0347415       1.25572e+07     11136.6         1267.33         1.00178         1.50569         2079.97         722.196         0.000233277     0.479848        
7300.00         0.0342491       1.26855e+07     11154.3         1295.99         1.002           1.49487         2087.1          794.755         0.000235604     0.496436        
7400.00         0.0337683       1.28167e+07     11172.2         1326.96         1.00225         1.48398         2093.98         870.255         0.000237905     0.513857        
7500.00         0.0332985       1.29512e+07     11190.3         1360.3          1.00252         1.47307         2100.65         948.431         0.000240177     0.532115        
7600.00         0.0328393       1.30892e+07     11208.5         1396.07         1.00282         1.46223         2107.17         1029.01         0.000242415     0.551203        
7700.00         0.0323899       1.32309e+07     11227.1         1434.32         1.00315         1.45152         2113.61         1111.71         0.000244619     0.571117        
7800.00         0.03195         1.33765e+07     11245.9         1475.08         1.00351         1.441           2120            1196.27         0.000246786     0.591844        
7900.00         0.031519        1.35264e+07     11264.9         1518.38         1.0039          1.43072         2126.4          1282.43         0.00024891      0.613364        
8000.00         0.0310965       1.36808e+07     11284.4         1564.21         1.00433         1.42074         2132.87         1369.93         0.00025099      0.635655        
8100.00         0.0306821       1.38399e+07     11304.1         1612.57         1.00478         1.4111          2139.44         1458.54         0.000253023     0.65869         
8200.00         0.0302755       1.4004e+07      11324.3         1663.41         1.00527         1.40184         2146.16         1548.04         0.000255006     0.682435        
8300.00         0.0298761       1.41733e+07     11344.8         1716.68         1.0058          1.39299         2153.06         1638.21         0.000256936     0.706849        
8400.00         0.0294837       1.43481e+07     11365.8         1772.3          1.00636         1.38458         2160.19         1728.88         0.000258811     0.731888        
8500.00         0.0290979       1.45286e+07     11387.1         1830.17         1.00695         1.37662         2167.57         1819.86         0.000260627     0.757493        
8600.00         0.0287185       1.47151e+07     11408.9         1890.14         1.00758         1.36914         2175.23         1911            0.000262383     0.783609        
8700.00         0.0283451       1.49076e+07     11431.2         1952.06         1.00824         1.36214         2183.18         2002.17         0.000264077     0.810166        
8800.00         0.0279776       1.51065e+07     11453.9         2015.72         1.00893         1.35562         2191.46         2093.21         0.000265708     0.837091        
8900.00         0.0276157       1.53119e+07     11477.2         2080.91         1.00965         1.34958         2200.07         2184.04         0.000267277     0.864307        
9000.00         0.0272591       1.55239e+07     11500.9         2147.38         1.0104          1.34403         2209.03         2274.55         0.00026878      0.891725        
9100.00         0.0269078       1.57426e+07     11525           2214.82         1.01117         1.33894         2218.35         2364.63         0.000270218     0.919247        
9200.00         0.0265616       1.59682e+07     11549.7         2282.93         1.01196         1.33432         2228.02         2454.2          0.000271593     0.946783        
9300.00         0.0262203       1.62006e+07     11574.8         2351.36         1.01278         1.33014         2238.07         2543.2          0.000272906     0.974227        
9400.00         0.0258838       1.64399e+07     11600.4         2419.74         1.0136          1.32639         2248.47         2631.54         0.000274157     1.00147         
9500.00         0.025552        1.6686e+07      11626.5         2487.66         1.01444         1.32306         2259.25         2719.18         0.00027535      1.02841         
9600.00         0.025225        1.69389e+07     11653           2554.72         1.01528         1.32012         2270.38         2806.05         0.000276484     1.05494         
9700.00         0.0249026       1.71985e+07     11679.9         2620.48         1.01611         1.31756         2281.87         2892.1          0.000277565     1.08094         
9800.00         0.0245848       1.74645e+07     11707.2         2684.51         1.01694         1.31534         2293.71         2977.29         0.000278596     1.10632         
9900.00         0.0242717       1.77369e+07     11734.9         2746.38         1.01775         1.31346         2305.89         3061.58         0.00027958      1.13097         
10000.00        0.0239632       1.80153e+07     11762.9         2805.66         1.01855         1.31189         2318.39         3144.91         0.000280518     1.1548          
10100.00        0.0236593       1.82996e+07     11791.2         2861.96         1.01931         1.31059         2331.2          3227.26         0.000281415     1.17772         
10200.00        0.0233601       1.85893e+07     11819.8         2914.92         1.02004         1.30955         2344.31         3308.59         0.000282276     1.19967         
10300.00        0.0230657       1.88841e+07     11848.5         2964.23         1.02073         1.30874         2357.7          3388.88         0.000283104     1.22059         
10400.00        0.0227761       1.91836e+07     11877.5         3009.63         1.02137         1.30813         2371.34         3468.12         0.000283899     1.24042         
10500.00        0.0224913       1.94874e+07     11906.6         3050.96         1.02196         1.30769         2385.21         3546.27         0.000284668     1.25914         
10600.00        0.0222114       1.97951e+07     11935.8         3088.13         1.0225          1.30738         2399.29         3623.32         0.000285409     1.27674         
10700.00        0.0219365       2.01063e+07     11965           3121.18         1.02297         1.30719         2413.54         3699.26         0.000286126     1.29322         
10800.00        0.0216665       2.04206e+07     11994.3         3150.25         1.02338         1.30706         2427.92         3774.08         0.000286821     1.30861         
10900.00        0.0214016       2.07376e+07     12023.5         3175.63         1.02373         1.30698         2442.41         3847.8          0.000287491     1.32296         
11000.00        0.0211418       2.10569e+07     12052.7         3197.73         1.02401         1.30688         2456.95         3920.42         0.000288136     1.33633         
11100.00        0.020887        2.13782e+07     12081.8         3217.13         1.02423         1.30674         2471.49         3991.96         0.000288755     1.3488          
11200.00        0.0206372       2.17013e+07     12110.8         3234.55         1.02439         1.30651         2485.99         4062.45         0.000289344     1.36047         
11300.00        0.0203924       2.2026e+07      12139.7         3250.83         1.0245          1.30615         2500.38         4131.91         0.000289899     1.37145         
11400.00        0.0201526       2.23523e+07     12168.4         3266.99         1.02456         1.3056          2514.61         4200.41         0.000290416     1.38186         
11500.00        0.0199176       2.26802e+07     12197.1         3284.16         1.02458         1.30481         2528.62         4267.99         0.000290886     1.39183         
11600.00        0.0196873       2.30099e+07     12225.7         3303.56         1.02458         1.30375         2542.33         4334.71         0.000291302     1.4015          
11700.00        0.0194616       2.33417e+07     12254.1         3326.54         1.02455         1.30237         2555.7          4400.64         0.000291655     1.411           
11800.00        0.0192403       2.3676e+07      12282.6         3354.48         1.02453         1.30063         2568.67         4465.88         0.000291935     1.42048         
11900.00        0.0190232       2.40133e+07     12311.1         3388.81         1.02452         1.29852         2581.2          4530.52         0.000292128     1.43007         
12000.00        0.0188101       2.43544e+07     12339.7         3430.96         1.02453         1.29601         2593.26         4594.64         0.000292224     1.43992         
12100.00        0.0186008       2.47002e+07     12368.4         3482.54         1.02458         1.29311         2604.82         4658.36         0.000292209     1.45023         
12200.00        0.018395        2.50517e+07     12397.3         3544.68         1.02468         1.28984         2615.91         4721.81         0.000292064     1.46105         
12300.00        0.0181923       2.54099e+07     12426.6         3618.66         1.02486         1.28625         2626.55         4785.08         0.000291774     1.47248         
12400.00        0.0179926       2.57761e+07     12456.2         3705.6          1.02512         1.2824          2636.81         4848.32         0.000291329     1.48464         
12500.00        0.0177955       2.61518e+07     12486.4         3806.49         1.02547         1.27836         2646.74         4911.65         0.000290705     1.49763         
12600.00        0.0176007       2.65382e+07     12517.2         3922.14         1.02593         1.27422         2656.43         4975.18         0.00028989      1.51152         
12700.00        0.017408        2.6937e+07      12548.8         4053.19         1.02651         1.27006         2665.98         5039.02         0.000288864     1.5264          
12800.00        0.017217        2.73498e+07     12581.1         4200.07         1.02721         1.26596         2675.49         5103.31         0.000287617     1.54235         
12900.00        0.0170274       2.7778e+07      12614.5         4363.04         1.02804         1.26202         2685.05         5168.13         0.000286131     1.55941         
13000.00        0.016839        2.82234e+07     12648.9         4542.16         1.02902         1.25831         2694.78         5233.59         0.000284396     1.57765         
13100.00        0.0166516       2.86875e+07     12684.5         4737.31         1.03013         1.25489         2704.76         5299.77         0.000282398     1.5971          
13200.00        0.0164649       2.91719e+07     12721.3         4948.24         1.03138         1.25181         2715.06         5366.75         0.000280129     1.61782         
13300.00        0.0162786       2.96783e+07     12759.6         5174.53         1.03278         1.2491          2725.76         5434.59         0.000277583     1.63984         
13400.00        0.0160926       3.02082e+07     12799.3         5415.67         1.03431         1.24681         2736.91         5503.35         0.000274757     1.6632          
13500.00        0.0159068       3.07629e+07     12840.5         5671.03         1.03598         1.24492         2748.56         5573.05         0.000271645     1.68792         
13600.00        0.0157209       3.13439e+07     12883.4         5939.92         1.03778         1.24347         2760.73         5643.72         0.000268253     1.71401         
13700.00        0.015535        3.19526e+07     12928.1         6221.61         1.03971         1.24242         2773.47         5715.37         0.000264579     1.74151         
13800.00        0.0153488       3.25901e+07     12974.4         6515.31         1.04176         1.24179         2786.78         5787.99         0.000260635     1.77042         
13900.00        0.0151623       3.32576e+07     13022.7         6820.22         1.04393         1.24154         2800.67         5861.57         0.000256427     1.80075         
14000.00        0.0149755       3.39563e+07     13072.8         7135.51         1.0462          1.24167         2815.16         5936.08         0.000251966     1.8325          
14100.00        0.0147884       3.46871e+07     13124.8         7460.33         1.04857         1.24214         2830.26         6011.49         0.000247268     1.86568         
14200.00        0.0146009       3.54509e+07     13178.8         7793.84         1.05104         1.24294         2845.95         6087.75         0.000242347     1.90028         
14300.00        0.0144131       3.62486e+07     13234.9         8135.18         1.05358         1.24405         2862.24         6164.81         0.00023722      1.93627         
14400.00        0.0142251       3.70809e+07     13292.9         8483.45         1.0562          1.24543         2879.12         6242.63         0.000231906     1.97365         
14500.00        0.0140368       3.79485e+07     13353           8837.75         1.05888         1.24707         2896.6          6321.13         0.000226428     2.01237         
14600.00        0.0138483       3.88519e+07     13415.1         9197.13         1.06162         1.24894         2914.66         6400.26         0.000220805     2.0524          
14700.00        0.0136598       3.97916e+07     13479.3         9560.63         1.0644          1.25102         2933.31         6479.94         0.000215059     2.09369         
14800.00        0.0134713       4.07679e+07     13545.5         9927.21         1.06721         1.25329         2952.53         6560.13         0.000209213     2.13617         
14900.00        0.013283        4.17811e+07     13613.8         10295.8         1.07005         1.25571         2972.32         6640.73         0.000203287     2.17979         
15000.00        0.0130949       4.28313e+07     13684.1         10665.3         1.0729          1.25828         2992.66         6721.69         0.000197306     2.22445         
15100.00        0.0129072       4.39185e+07     13756.3         11034.4         1.07575         1.26096         3013.56         6802.93         0.00019129      2.27006         
15200.00        0.0127201       4.50427e+07     13830.6         11401.9         1.07858         1.26374         3034.99         6884.4          0.00018526      2.31652         
15300.00        0.0125337       4.62037e+07     13906.8         11766.5         1.08139         1.2666          3056.96         6966.02         0.000179236     2.36371         
15400.00        0.0123481       4.74009e+07     13984.8         12126.7         1.08416         1.26951         3079.45         7047.72         0.000173238     2.41149         
15500.00        0.0121635       4.86339e+07     14064.7         12481.1         1.08687         1.27245         3102.44         7129.44         0.000167281     2.45973         
15600.00        0.01198         4.99021e+07     14146.3         12828.2         1.08952         1.27541         3125.92         7211.12         0.000161386     2.50828         
15700.00        0.011798        5.12046e+07     14229.5         13166.2         1.09209         1.27836         3149.87         7292.69         0.000155566     2.55697         
15800.00        0.0116174       5.25405e+07     14314.4         13493.6         1.09457         1.28128         3174.29         7374.1          0.000149835     2.60563         
15900.00        0.0114385       5.39084e+07     14400.8         13808.8         1.09694         1.28415         3199.14         7455.28         0.000144206     2.65409         
16000.00        0.0112614       5.53072e+07     14488.5         14109.9         1.09918         1.28696         3224.42         7536.19         0.000138691     2.70216         
16100.00        0.0110864       5.67354e+07     14577.6         14395.3         1.10129         1.28969         3250.09         7616.76         0.000133299     2.74964         
16200.00        0.0109136       5.81911e+07     14667.7         14663.2         1.10326         1.29232         3276.14         7696.95         0.00012804      2.79636         
16300.00        0.0107431       5.96727e+07     14759           14912.1         1.10506         1.29483         3302.55         7776.72         0.00012292      2.84211         
16400.00        0.010575        6.11781e+07     14851.1         15140.4         1.10669         1.2972          3329.28         7856.01         0.000117945     2.88671         
16500.00        0.0104097       6.27051e+07     14944           15346.4         1.10814         1.29944         3356.31         7934.77         0.000113122     2.92996         
16600.00        0.0102471       6.42514e+07     15037.5         15528.9         1.10939         1.30151         3383.61         8012.97         0.000108452     2.97169         
16700.00        0.0100875       6.58147e+07     15131.4         15686.5         1.11045         1.30341         3411.15         8090.58         0.000103941     3.01173         
16800.00        0.00993085      6.73923e+07     15225.6         15818.2         1.11129         1.30514         3438.91         8167.55         9.95883e-05     3.04992         
16900.00        0.00977739      6.89816e+07     15320           15923.1         1.11193         1.30669         3466.86         8243.84         9.5396e-05      3.08612         
17000.00        0.00962718      7.05798e+07     15414.3         16000.3         1.11235         1.30804         3494.95         8319.43         9.13642e-05     3.12019         
17100.00        0.00948031      7.21842e+07     15508.5         16049.5         1.11255         1.30921         3523.17         8394.29         8.74922e-05     3.15202         
17200.00        0.00933686      7.3792e+07      15602.3         16070.3         1.11253         1.31018         3551.48         8468.39         8.3779e-05      3.18153         
17300.00        0.00919688      7.54003e+07     15695.5         16062.9         1.11229         1.31096         3579.85         8541.71         8.02225e-05     3.20865         
17400.00        0.00906042      7.70062e+07     15788.1         16027.3         1.11185         1.31155         3608.25         8614.21         7.68204e-05     3.23333         
17500.00        0.00892753      7.8607e+07      15879.9         15964.2         1.11119         1.31197         3636.65         8685.88         7.35702e-05     3.25555         
17600.00        0.00879821      8.01999e+07     15970.7         15874.2         1.11034         1.31221         3665.03         8756.71         7.04682e-05     3.2753          
17700.00        0.00867248      8.17824e+07     16060.4         15758.5         1.10929         1.31229         3693.35         8826.67         6.75114e-05     3.29263         
17800.00        0.00855034      8.3352e+07      16148.9         15618.2         1.10806         1.31222         3721.6          8895.75         6.46958e-05     3.30756         
17900.00        0.00843176      8.49061e+07     16236           15454.7         1.10666         1.312           3749.74         8963.93         6.20174e-05     3.32019         
18000.00        0.00831672      8.64426e+07     16321.6         15269.8         1.10511         1.31167         3777.76         9031.21         5.94717e-05     3.33058         
18100.00        0.00820518      8.79595e+07     16405.7         15065.1         1.10341         1.31122         3805.63         9097.57         5.70545e-05     3.33887         
18200.00        0.00809709      8.94549e+07     16488.1         14842.6         1.10158         1.31068         3833.33         9163            5.47611e-05     3.34516         
18300.00        0.00799239      9.0927e+07      16568.7         14604.4         1.09964         1.31007         3860.86         9227.49         5.25871e-05     3.34961         
18400.00        0.00789102      9.23746e+07     16647.6         14352.5         1.09759         1.30939         3888.19         9291.04         5.05276e-05     3.35236         
18500.00        0.00779289      9.37962e+07     16724.7         14089           1.09547         1.30867         3915.31         9353.64         4.85782e-05     3.35359         
18600.00        0.00769792      9.51908e+07     16799.9         13816.1         1.09328         1.30792         3942.2          9415.29         4.6734e-05      3.35345         
18700.00        0.00760603      9.65577e+07     16873.2         13535.9         1.09103         1.30716         3968.87         9475.99         4.49906e-05     3.35214         
18800.00        0.00751712      9.78962e+07     16944.6         13250.5         1.08875         1.3064          3995.29         9535.73         4.33432e-05     3.34981         
18900.00        0.0074311       9.92059e+07     17014.1         12961.8         1.08644         1.30565         4021.47         9594.51         4.17875e-05     3.34664         
19000.00        0.00734786      1.00487e+08     17081.7         12671.8         1.08412         1.30493         4047.4          9652.3          4.03189e-05     3.34281         
19100.00        0.00726731      1.01738e+08     17147.4         12382.1         1.0818          1.30425         4073.06         9709.11         3.89332e-05     3.33847         
19200.00        0.00718935      1.02961e+08     17211.2         12094.5         1.07949         1.30362         4098.46         9764.94         3.76261e-05     3.33379         
19300.00        0.00711386      1.04155e+08     17273.3         11810.5         1.07721         1.30304         4123.6          9819.81         3.63937e-05     3.32893         
19400.00        0.00704074      1.05321e+08     17333.5         11531.4         1.07496         1.30252         4148.46         9873.71         3.52319e-05     3.32403         
19500.00        0.0069699       1.06459e+08     17392           11258.4         1.07276         1.30207         4173.06         9926.64         3.41369e-05     3.31922         
19600.00        0.00690123      1.0757e+08      17448.9         10992.5         1.0706          1.30169         4197.37         9978.62         3.31051e-05     3.31462         
19700.00        0.00683463      1.08655e+08     17504.1         10734.5         1.0685          1.30138         4221.41         10029.6         3.21329e-05     3.31034         
19800.00        0.00677         1.09715e+08     17557.7         10485.4         1.06646         1.30115         4245.18         10079.7         3.12169e-05     3.30647         
19900.00        0.00670726      1.1075e+08      17609.8         10245.4         1.06449         1.30098         4268.66         10128.8         3.03539e-05     3.30311         
20000.00        0.0066463       1.11762e+08     17660.5         10015.2         1.06259         1.30088         4291.87         10176.9         2.95408e-05     3.30032         
20100.00        0.00658704      1.12751e+08     17709.9         9794.93         1.06076         1.30085         4314.8          10224.1         2.87746e-05     3.29817         
20200.00        0.0065294       1.13719e+08     17757.9         9584.77         1.059           1.30089         4337.45         10270.3         2.80523e-05     3.29672         
20300.00        0.0064733       1.14666e+08     17804.6         9384.77         1.05732         1.30098         4359.83         10315.6         2.73718e-05     3.29601         
20400.00        0.00641865      1.15593e+08     17850.2         9194.85         1.05571         1.30113         4381.93         10360.1         2.67302e-05     3.29609         
20500.00        0.00636538      1.16502e+08     17894.6         9014.82         1.05418         1.30133         4403.77         10403.7         2.61253e-05     3.29698         
20600.00        0.00631343      1.17394e+08     17938           8844.42         1.05272         1.30158         4425.34         10446.3         2.55547e-05     3.29871         
20700.00        0.00626273      1.18269e+08     17980.4         8683.32         1.05133         1.30188         4446.65         10488.2         2.50164e-05     3.30128         
20800.00        0.00621321      1.19128e+08     18021.8         8531.1          1.05001         1.30221         4467.72         10529.2         2.45084e-05     3.30469         
20900.00        0.00616482      1.19973e+08     18062.2         8387.31         1.04876         1.30259         4488.53         10569.4         2.40288e-05     3.30894         
21000.00        0.00611751      1.20804e+08     18101.9         8251.45         1.04757         1.30299         4509.12         10608.8         2.35759e-05     3.31404         
21100.00        0.00607122      1.21621e+08     18140.7         8122.98         1.04644         1.30344         4529.49         10647.5         2.3148e-05      3.31999         
21200.00        0.00602591      1.22426e+08     18178.7         8001.36         1.04537         1.30391         4549.64         10685.5         2.27437e-05     3.32678         
21300.00        0.00598154      1.23219e+08     18216           7886.02         1.04435         1.30441         4569.59         10722.9         2.23616e-05     3.33439         
21400.00        0.00593805      1.24001e+08     18252.6         7776.39         1.04338         1.30495         4589.36         10759.6         2.20003e-05     3.34279         
21500.00        0.00589542      1.24772e+08     18288.5         7671.9          1.04246         1.30551         4608.96         10795.6         2.16585e-05     3.35197         
21600.00        0.00585361      1.25533e+08     18323.8         7572.02         1.04158         1.3061          4628.4          10831.1         2.13353e-05     3.36191         
21700.00        0.00581259      1.26284e+08     18358.5         7476.21         1.04073         1.30672         4647.7          10866.2         2.10295e-05     3.37261         
21800.00        0.00577233      1.27026e+08     18392.6         7383.97         1.03992         1.30738         4666.86         10900.7         2.07402e-05     3.38404         
21900.00        0.0057328       1.27759e+08     18426.1         7294.83         1.03914         1.30806         4685.9          10934.9         2.04664e-05     3.39618         
22000.00        0.00569398      1.28483e+08     18459.1         7208.37         1.03839         1.30877         4704.84         10968.6         2.02074e-05     3.40901         
22100.00        0.00565584      1.29198e+08     18491.5         7124.19         1.03766         1.30952         4723.67         11002           1.99623e-05     3.42249         
22200.00        0.00561836      1.29905e+08     18523.4         7041.95         1.03695         1.31029         4742.43         11035           1.97305e-05     3.43662         
22300.00        0.00558153      1.30604e+08     18554.8         6961.34         1.03626         1.3111          4761.1          11067.9         1.95114e-05     3.45136         
22400.00        0.00554533      1.31295e+08     18585.7         6882.11         1.03559         1.31195         4779.7          11100.5         1.93042e-05     3.46672         
22500.00        0.00550973      1.31979e+08     18616.1         6804.05         1.03493         1.31282         4798.24         11132.9         1.91085e-05     3.48267         
22600.00        0.00547472      1.32654e+08     18646           6727.01         1.03428         1.31372         4816.72         11165.2         1.89236e-05     3.49919         
22700.00        0.00544029      1.33322e+08     18675.5         6650.86         1.03365         1.31465         4835.14         11197.4         1.87492e-05     3.51626         
22800.00        0.00540642      1.33982e+08     18704.5         6575.55         1.03302         1.31561         4853.5          11229.6         1.85847e-05     3.53386         
22900.00        0.0053731       1.34635e+08     18733           6501.05         1.0324          1.31659         4871.8          11261.6         1.84298e-05     3.55196         
23000.00        0.00534032      1.3528e+08      18761.1         6427.36         1.03179         1.3176          4890.05         11293.7         1.8284e-05      3.57055         
23100.00        0.00530806      1.35919e+08     18788.8         6354.54         1.03118         1.31862         4908.22         11325.8         1.81469e-05     3.58963         
23200.00        0.00527631      1.36549e+08     18816           6282.69         1.03058         1.31965         4926.32         11358           1.80183e-05     3.6092          
23300.00        0.00524506      1.37173e+08     18842.8         6211.91         1.02999         1.32069         4944.34         11390.2         1.78977e-05     3.62923         
23400.00        0.0052143       1.3779e+08      18869.2         6142.35         1.02941         1.32174         4962.27         11422.5         1.77849e-05     3.64971         
23500.00        0.00518401      1.384e+08       18895.2         6074.19         1.02883         1.32277         4980.09         11455           1.76795e-05     3.6706          
23600.00        0.00515419      1.39003e+08     18920.7         6007.62         1.02826         1.32379         4997.79         11487.5         1.75811e-05     3.69191         
23700.00        0.00512482      1.39599e+08     18945.9         5942.85         1.0277          1.32479         5015.35         11520.2         1.74897e-05     3.71363         
23800.00        0.00509589      1.4019e+08      18970.8         5880.09         1.02714         1.32576         5032.76         11553.1         1.74047e-05     3.73578         
23900.00        0.00506739      1.40774e+08     18995.2         5819.61         1.0266          1.32668         5049.99         11586.1         1.73261e-05     3.75832         
24000.00        0.00503931      1.41352e+08     19019.3         5761.63         1.02607         1.32755         5067.01         11619.2         1.72535e-05     3.78125         
24100.00        0.00501163      1.41924e+08     19043.1         5706.41         1.02555         1.32836         5083.82         11652.5         1.71867e-05     3.80453         
24200.00        0.00498435      1.42492e+08     19066.6         5654.21         1.02504         1.32909         5100.37         11685.9         1.71254e-05     3.82817         
24300.00        0.00495745      1.43054e+08     19089.7         5605.3          1.02455         1.32973         5116.65         11719.5         1.70694e-05     3.85217         
24400.00        0.00493093      1.43611e+08     19112.6         5559.94         1.02407         1.33027         5132.63         11753.3         1.70183e-05     3.87651         
24500.00        0.00490476      1.44164e+08     19135.2         5518.39         1.02361         1.33069         5148.28         11787.1         1.6972e-05      3.90119         
24600.00        0.00487894      1.44713e+08     19157.5         5480.92         1.02317         1.33099         5163.57         11821.1         1.69302e-05     3.9262          
24700.00        0.00485346      1.45259e+08     19179.7         5447.78         1.02275         1.33114         5178.48         11855.2         1.68927e-05     3.95155         
24800.00        0.0048283       1.45802e+08     19201.6         5419.23         1.02234         1.33115         5192.99         11889.4         1.68592e-05     3.97722         
24900.00        0.00480345      1.46341e+08     19223.3         5395.52         1.02196         1.33098         5207.06         11923.7         1.68296e-05     4.0032          
25000.00        0.00477891      1.46879e+08     19244.8         5376.9          1.0216          1.33065         5220.67         11958           1.68035e-05     4.02947         
25100.00        0.00475465      1.47416e+08     19266.2         5363.61         1.02127         1.33013         5233.81         11992.4         1.67807e-05     4.05605         
25200.00        0.00473066      1.47951e+08     19287.4         5355.89         1.02096         1.32943         5246.46         12026.8         1.6761e-05      4.08291         
25300.00        0.00470694      1.48486e+08     19308.6         5353.97         1.02068         1.32853         5258.61         12061.2         1.67441e-05     4.11006         
25400.00        0.00468347      1.4902e+08      19329.7         5358.08         1.02043         1.32743         5270.24         12095.5         1.67299e-05     4.1375          
25500.00        0.00466024      1.49556e+08     19350.7         5368.44         1.0202          1.32613         5281.35         12129.7         1.6718e-05      4.1652          
25600.00        0.00463724      1.50093e+08     19371.7         5385.27         1.02001         1.32463         5291.94         12163.9         1.67082e-05     4.19316         
25700.00        0.00461446      1.50632e+08     19392.6         5408.78         1.01984         1.32293         5302.02         12197.9         1.67003e-05     4.22137         
25800.00        0.00459188      1.51173e+08     19413.7         5439.19         1.01971         1.32104         5311.59         12231.8         1.66939e-05     4.2498          
25900.00        0.00456949      1.51719e+08     19434.7         5476.69         1.01961         1.31897         5320.67         12265.5         1.6689e-05      4.27847         
26000.00        0.00454728      1.52268e+08     19455.9         5521.5          1.01955         1.31672         5329.27         12298.9         1.66853e-05     4.30736         
26100.00        0.00452524      1.52822e+08     19477.1         5573.8          1.01952         1.31432         5337.42         12332.1         1.66825e-05     4.33649         
26200.00        0.00450336      1.53381e+08     19498.5         5633.79         1.01952         1.31176         5345.15         12365           1.66804e-05     4.36586         
26300.00        0.00448162      1.53947e+08     19520           5701.65         1.01957         1.30907         5352.49         12397.5         1.66788e-05     4.39545         
26400.00        0.00446002      1.5452e+08      19541.8         5777.57         1.01965         1.30627         5359.47         12429.7         1.66773e-05     4.42527         
26500.00        0.00443855      1.55102e+08     19563.7         5861.72         1.01977         1.30337         5366.14         12461.4         1.66758e-05     4.45528         
26600.00        0.00441718      1.55692e+08     19585.9         5954.27         1.01993         1.30039         5372.52         12492.8         1.66739e-05     4.48546         
26700.00        0.00439592      1.56291e+08     19608.4         6055.4          1.02014         1.29735         5378.67         12523.7         1.66715e-05     4.51581         
26800.00        0.00437474      1.56902e+08     19631.2         6165.26         1.02038         1.29427         5384.62         12554           1.66683e-05     4.54633         
26900.00        0.00435365      1.57523e+08     19654.3         6283.99         1.02067         1.29117         5390.43         12583.8         1.66641e-05     4.577           
27000.00        0.00433263      1.58157e+08     19677.8         6411.74         1.021           1.28807         5396.12         12613           1.66587e-05     4.60782         
27100.00        0.00431166      1.58804e+08     19701.7         6548.65         1.02137         1.28499         5401.76         12641.5         1.66518e-05     4.63879         
27200.00        0.00429074      1.59466e+08     19726           6694.83         1.02179         1.28194         5407.37         12669.3         1.66432e-05     4.66991         
27300.00        0.00426987      1.60142e+08     19750.8         6850.4          1.02225         1.27894         5413            12696.4         1.66326e-05     4.70116         
27400.00        0.00424902      1.60834e+08     19776.1         7015.45         1.02276         1.27601         5418.7          12722.7         1.66198e-05     4.73254         
27500.00        0.00422819      1.61544e+08     19802           7190.07         1.02332         1.27316         5424.49         12748.3         1.66046e-05     4.76403         
27600.00        0.00420737      1.62271e+08     19828.3         7374.32         1.02392         1.27041         5430.41         12773           1.65868e-05     4.79562         
27700.00        0.00418655      1.63017e+08     19855.3         7568.26         1.02458         1.26776         5436.5          12796.9         1.65661e-05     4.82731         
27800.00        0.00416572      1.63783e+08     19882.9         7771.92         1.02527         1.26524         5442.78         12819.9         1.65425e-05     4.85912         
27900.00        0.00414488      1.6457e+08      19911.1         7985.32         1.02602         1.26283         5449.29         12842           1.65157e-05     4.89107         
28000.00        0.00412401      1.65379e+08     19940           8208.43         1.02681         1.26057         5456.04         12863.1         1.64855e-05     4.92312         
28100.00        0.00410311      1.6621e+08      19969.7         8441.24         1.02766         1.25844         5463.07         12883.3         1.64518e-05     4.95526         
28200.00        0.00408217      1.67065e+08     20000           8683.68         1.02854         1.25647         5470.39         12902.4         1.64142e-05     4.98744         
28300.00        0.00406118      1.67945e+08     20031.2         8935.68         1.02948         1.25464         5478.02         12920.5         1.63727e-05     5.01963         
28400.00        0.00404014      1.68851e+08     20063.1         9197.12         1.03047         1.25296         5485.98         12937.5         1.63272e-05     5.05184         
28500.00        0.00401904      1.69783e+08     20095.8         9467.87         1.0315          1.25145         5494.28         12953.5         1.62774e-05     5.0841          
28600.00        0.00399787      1.70743e+08     20129.4         9747.76         1.03257         1.25009         5502.94         12968.5         1.62233e-05     5.1164          
28700.00        0.00397663      1.71731e+08     20163.9         10036.6         1.0337          1.24888         5511.96         12982.4         1.61648e-05     5.14876         
28800.00        0.00395531      1.72748e+08     20199.3         10334.1         1.03486         1.24783         5521.36         12995.2         1.61019e-05     5.18116         
28900.00        0.00393392      1.73795e+08     20235.6         10640.1         1.03607         1.24694         5531.14         13006.9         1.60344e-05     5.21358         
29000.00        0.00391244      1.74874e+08     20272.8         10954.2         1.03732         1.24619         5541.31         13017.5         1.59623e-05     5.24599         
29100.00        0.00389087      1.75984e+08     20311           11276.1         1.03861         1.2456          5551.87         13026.9         1.58852e-05     5.2784          
29200.00        0.00386921      1.77127e+08     20350.2         11605.5         1.03994         1.24515         5562.82         13035.2         1.58037e-05     5.3108          
29300.00        0.00384746      1.78303e+08     20390.4         11941.9         1.04131         1.24485         5574.18         13042.4         1.57175e-05     5.3432          
29400.00        0.00382562      1.79513e+08     20431.6         12284.8         1.04271         1.24468         5585.93         13048.5         1.56267e-05     5.3756          
29500.00        0.00380368      1.80758e+08     20473.8         12634           1.04415         1.24465         5598.09         13053.6         1.55311e-05     5.40798         
29600.00        0.00378165      1.82037e+08     20517.1         12988.7         1.04561         1.24474         5610.65         13057.7         1.5431e-05      5.44036         
29700.00        0.00375952      1.83353e+08     20561.5         13348.5         1.0471          1.24496         5623.62         13060.7         1.53263e-05     5.47271         
29800.00        0.0037373       1.84705e+08     20606.9         13712.8         1.04862         1.24529         5636.98         13062.7         1.52171e-05     5.50504         
29900.00        0.00371499      1.86093e+08     20653.4         14080.9         1.05016         1.24573         5650.74         13063.8         1.51036e-05     5.53734         
30000.00        0.00369259      1.87518e+08     20701           14452.3         1.05172         1.24628         5664.9          13064           1.49859e-05     5.56961         
